#  E (eV)   dos(E)     Int dos(E) EFermi =    6.916 eV
  -9.000  0.0000E+00  0.0000E+00
  -8.990  0.0000E+00  0.0000E+00
  -8.980  0.0000E+00  0.0000E+00
  -8.970  0.0000E+00  0.0000E+00
  -8.960  0.0000E+00  0.0000E+00
  -8.950  0.0000E+00  0.0000E+00
  -8.940  0.0000E+00  0.0000E+00
  -8.930  0.0000E+00  0.0000E+00
  -8.920  0.0000E+00  0.0000E+00
  -8.910  0.0000E+00  0.0000E+00
  -8.900  0.0000E+00  0.0000E+00
  -8.890  0.0000E+00  0.0000E+00
  -8.880  0.0000E+00  0.0000E+00
  -8.870  0.0000E+00  0.0000E+00
  -8.860  0.0000E+00  0.0000E+00
  -8.850  0.0000E+00  0.0000E+00
  -8.840  0.0000E+00  0.0000E+00
  -8.830  0.0000E+00  0.0000E+00
  -8.820  0.0000E+00  0.0000E+00
  -8.810  0.0000E+00  0.0000E+00
  -8.800  0.0000E+00  0.0000E+00
  -8.790  0.0000E+00  0.0000E+00
  -8.780  0.0000E+00  0.0000E+00
  -8.770  0.0000E+00  0.0000E+00
  -8.760  0.0000E+00  0.0000E+00
  -8.750  0.0000E+00  0.0000E+00
  -8.740  0.0000E+00  0.0000E+00
  -8.730  0.0000E+00  0.0000E+00
  -8.720  0.0000E+00  0.0000E+00
  -8.710  0.0000E+00  0.0000E+00
  -8.700  0.0000E+00  0.0000E+00
  -8.690  0.0000E+00  0.0000E+00
  -8.680  0.0000E+00  0.0000E+00
  -8.670  0.0000E+00  0.0000E+00
  -8.660  0.0000E+00  0.0000E+00
  -8.650  0.0000E+00  0.0000E+00
  -8.640  0.0000E+00  0.0000E+00
  -8.630  0.0000E+00  0.0000E+00
  -8.620  0.0000E+00  0.0000E+00
  -8.610  0.0000E+00  0.0000E+00
  -8.600  0.0000E+00  0.0000E+00
  -8.590  0.0000E+00  0.0000E+00
  -8.580  0.0000E+00  0.0000E+00
  -8.570  0.0000E+00  0.0000E+00
  -8.560  0.0000E+00  0.0000E+00
  -8.550  0.0000E+00  0.0000E+00
  -8.540  0.0000E+00  0.0000E+00
  -8.530  0.0000E+00  0.0000E+00
  -8.520  0.0000E+00  0.0000E+00
  -8.510  0.0000E+00  0.0000E+00
  -8.500  0.0000E+00  0.0000E+00
  -8.490  0.0000E+00  0.0000E+00
  -8.480  0.0000E+00  0.0000E+00
  -8.470  0.0000E+00  0.0000E+00
  -8.460  0.0000E+00  0.0000E+00
  -8.450  0.0000E+00  0.0000E+00
  -8.440  0.0000E+00  0.0000E+00
  -8.430  0.0000E+00  0.0000E+00
  -8.420  0.0000E+00  0.0000E+00
  -8.410  0.0000E+00  0.0000E+00
  -8.400  0.0000E+00  0.0000E+00
  -8.390  0.0000E+00  0.0000E+00
  -8.380  0.0000E+00  0.0000E+00
  -8.370  0.0000E+00  0.0000E+00
  -8.360  0.0000E+00  0.0000E+00
  -8.350  0.0000E+00  0.0000E+00
  -8.340  0.0000E+00  0.0000E+00
  -8.330  0.0000E+00  0.0000E+00
  -8.320  0.0000E+00  0.0000E+00
  -8.310  0.0000E+00  0.0000E+00
  -8.300  0.0000E+00  0.0000E+00
  -8.290  0.0000E+00  0.0000E+00
  -8.280  0.0000E+00  0.0000E+00
  -8.270  0.0000E+00  0.0000E+00
  -8.260  0.0000E+00  0.0000E+00
  -8.250  0.0000E+00  0.0000E+00
  -8.240  0.0000E+00  0.0000E+00
  -8.230  0.0000E+00  0.0000E+00
  -8.220  0.0000E+00  0.0000E+00
  -8.210  0.0000E+00  0.0000E+00
  -8.200  0.0000E+00  0.0000E+00
  -8.190  0.0000E+00  0.0000E+00
  -8.180  0.0000E+00  0.0000E+00
  -8.170  0.0000E+00  0.0000E+00
  -8.160  0.0000E+00  0.0000E+00
  -8.150  0.0000E+00  0.0000E+00
  -8.140  0.0000E+00  0.0000E+00
  -8.130  0.0000E+00  0.0000E+00
  -8.120  0.0000E+00  0.0000E+00
  -8.110  0.0000E+00  0.0000E+00
  -8.100  0.0000E+00  0.0000E+00
  -8.090  0.0000E+00  0.0000E+00
  -8.080  0.0000E+00  0.0000E+00
  -8.070  0.0000E+00  0.0000E+00
  -8.060  0.0000E+00  0.0000E+00
  -8.050  0.0000E+00  0.0000E+00
  -8.040  0.0000E+00  0.0000E+00
  -8.030  0.0000E+00  0.0000E+00
  -8.020  0.0000E+00  0.0000E+00
  -8.010  0.0000E+00  0.0000E+00
  -8.000  0.0000E+00  0.0000E+00
  -7.990  0.0000E+00  0.0000E+00
  -7.980  0.0000E+00  0.0000E+00
  -7.970  0.0000E+00  0.0000E+00
  -7.960  0.0000E+00  0.0000E+00
  -7.950  0.0000E+00  0.0000E+00
  -7.940  0.0000E+00  0.0000E+00
  -7.930  0.0000E+00  0.0000E+00
  -7.920  0.0000E+00  0.0000E+00
  -7.910  0.0000E+00  0.0000E+00
  -7.900  0.0000E+00  0.0000E+00
  -7.890  0.0000E+00  0.0000E+00
  -7.880  0.0000E+00  0.0000E+00
  -7.870  0.0000E+00  0.0000E+00
  -7.860  0.0000E+00  0.0000E+00
  -7.850  0.0000E+00  0.0000E+00
  -7.840  0.0000E+00  0.0000E+00
  -7.830  0.0000E+00  0.0000E+00
  -7.820  0.0000E+00  0.0000E+00
  -7.810  0.0000E+00  0.0000E+00
  -7.800  0.0000E+00  0.0000E+00
  -7.790  0.0000E+00  0.0000E+00
  -7.780  0.0000E+00  0.0000E+00
  -7.770  0.0000E+00  0.0000E+00
  -7.760  0.0000E+00  0.0000E+00
  -7.750  0.0000E+00  0.0000E+00
  -7.740  0.0000E+00  0.0000E+00
  -7.730  0.0000E+00  0.0000E+00
  -7.720  0.0000E+00  0.0000E+00
  -7.710  0.0000E+00  0.0000E+00
  -7.700  0.0000E+00  0.0000E+00
  -7.690  0.0000E+00  0.0000E+00
  -7.680  0.0000E+00  0.0000E+00
  -7.670  0.0000E+00  0.0000E+00
  -7.660  0.0000E+00  0.0000E+00
  -7.650  0.0000E+00  0.0000E+00
  -7.640  0.0000E+00  0.0000E+00
  -7.630  0.0000E+00  0.0000E+00
  -7.620  0.0000E+00  0.0000E+00
  -7.610  0.0000E+00  0.0000E+00
  -7.600  0.0000E+00  0.0000E+00
  -7.590  0.0000E+00  0.0000E+00
  -7.580  0.0000E+00  0.0000E+00
  -7.570  0.0000E+00  0.0000E+00
  -7.560  0.0000E+00  0.0000E+00
  -7.550  0.0000E+00  0.0000E+00
  -7.540  0.0000E+00  0.0000E+00
  -7.530  0.0000E+00  0.0000E+00
  -7.520  0.0000E+00  0.0000E+00
  -7.510  0.0000E+00  0.0000E+00
  -7.500  0.0000E+00  0.0000E+00
  -7.490  0.0000E+00  0.0000E+00
  -7.480  0.0000E+00  0.0000E+00
  -7.470  0.0000E+00  0.0000E+00
  -7.460  0.0000E+00  0.0000E+00
  -7.450  0.0000E+00  0.0000E+00
  -7.440  0.0000E+00  0.0000E+00
  -7.430  0.0000E+00  0.0000E+00
  -7.420  0.0000E+00  0.0000E+00
  -7.410  0.0000E+00  0.0000E+00
  -7.400  0.0000E+00  0.0000E+00
  -7.390  0.0000E+00  0.0000E+00
  -7.380  0.0000E+00  0.0000E+00
  -7.370  0.0000E+00  0.0000E+00
  -7.360  0.0000E+00  0.0000E+00
  -7.350  0.0000E+00  0.0000E+00
  -7.340  0.0000E+00  0.0000E+00
  -7.330  0.0000E+00  0.0000E+00
  -7.320  0.0000E+00  0.0000E+00
  -7.310  0.0000E+00  0.0000E+00
  -7.300  0.0000E+00  0.0000E+00
  -7.290  0.0000E+00  0.0000E+00
  -7.280  0.0000E+00  0.0000E+00
  -7.270  0.0000E+00  0.0000E+00
  -7.260  0.0000E+00  0.0000E+00
  -7.250  0.0000E+00  0.0000E+00
  -7.240  0.0000E+00  0.0000E+00
  -7.230  0.0000E+00  0.0000E+00
  -7.220  0.0000E+00  0.0000E+00
  -7.210  0.0000E+00  0.0000E+00
  -7.200  0.0000E+00  0.0000E+00
  -7.190  0.0000E+00  0.0000E+00
  -7.180  0.0000E+00  0.0000E+00
  -7.170  0.0000E+00  0.0000E+00
  -7.160  0.0000E+00  0.0000E+00
  -7.150  0.0000E+00  0.0000E+00
  -7.140  0.0000E+00  0.0000E+00
  -7.130  0.0000E+00  0.0000E+00
  -7.120  0.0000E+00  0.0000E+00
  -7.110  0.0000E+00  0.0000E+00
  -7.100  0.0000E+00  0.0000E+00
  -7.090  0.0000E+00  0.0000E+00
  -7.080  0.0000E+00  0.0000E+00
  -7.070  0.0000E+00  0.0000E+00
  -7.060  0.0000E+00  0.0000E+00
  -7.050  0.0000E+00  0.0000E+00
  -7.040  0.0000E+00  0.0000E+00
  -7.030  0.0000E+00  0.0000E+00
  -7.020  0.0000E+00  0.0000E+00
  -7.010  0.0000E+00  0.0000E+00
  -7.000  0.0000E+00  0.0000E+00
  -6.990  0.0000E+00  0.0000E+00
  -6.980  0.0000E+00  0.0000E+00
  -6.970  0.0000E+00  0.0000E+00
  -6.960  0.0000E+00  0.0000E+00
  -6.950  0.0000E+00  0.0000E+00
  -6.940  0.0000E+00  0.0000E+00
  -6.930  0.0000E+00  0.0000E+00
  -6.920  0.0000E+00  0.0000E+00
  -6.910  0.0000E+00  0.0000E+00
  -6.900  0.0000E+00  0.0000E+00
  -6.890  0.0000E+00  0.0000E+00
  -6.880  0.0000E+00  0.0000E+00
  -6.870  0.0000E+00  0.0000E+00
  -6.860  0.0000E+00  0.0000E+00
  -6.850  0.0000E+00  0.0000E+00
  -6.840  0.0000E+00  0.0000E+00
  -6.830  0.0000E+00  0.0000E+00
  -6.820  0.0000E+00  0.0000E+00
  -6.810  0.0000E+00  0.0000E+00
  -6.800  0.0000E+00  0.0000E+00
  -6.790  0.0000E+00  0.0000E+00
  -6.780  0.0000E+00  0.0000E+00
  -6.770  0.0000E+00  0.0000E+00
  -6.760  0.0000E+00  0.0000E+00
  -6.750  0.0000E+00  0.0000E+00
  -6.740  0.0000E+00  0.0000E+00
  -6.730  0.0000E+00  0.0000E+00
  -6.720  0.0000E+00  0.0000E+00
  -6.710  0.0000E+00  0.0000E+00
  -6.700  0.0000E+00  0.0000E+00
  -6.690  0.0000E+00  0.0000E+00
  -6.680  0.0000E+00  0.0000E+00
  -6.670  0.0000E+00  0.0000E+00
  -6.660  0.0000E+00  0.0000E+00
  -6.650  0.0000E+00  0.0000E+00
  -6.640  0.0000E+00  0.0000E+00
  -6.630  0.0000E+00  0.0000E+00
  -6.620  0.0000E+00  0.0000E+00
  -6.610  0.0000E+00  0.0000E+00
  -6.600  0.0000E+00  0.0000E+00
  -6.590  0.0000E+00  0.0000E+00
  -6.580  0.0000E+00  0.0000E+00
  -6.570  0.0000E+00  0.0000E+00
  -6.560  0.0000E+00  0.0000E+00
  -6.550  0.0000E+00  0.0000E+00
  -6.540  0.0000E+00  0.0000E+00
  -6.530  0.0000E+00  0.0000E+00
  -6.520  0.0000E+00  0.0000E+00
  -6.510  0.0000E+00  0.0000E+00
  -6.500  0.0000E+00  0.0000E+00
  -6.490  0.0000E+00  0.0000E+00
  -6.480  0.0000E+00  0.0000E+00
  -6.470  0.0000E+00  0.0000E+00
  -6.460  0.0000E+00  0.0000E+00
  -6.450  0.0000E+00  0.0000E+00
  -6.440  0.0000E+00  0.0000E+00
  -6.430  0.0000E+00  0.0000E+00
  -6.420  0.0000E+00  0.0000E+00
  -6.410  0.0000E+00  0.0000E+00
  -6.400  0.0000E+00  0.0000E+00
  -6.390  0.0000E+00  0.0000E+00
  -6.380  0.0000E+00  0.0000E+00
  -6.370  0.0000E+00  0.0000E+00
  -6.360  0.0000E+00  0.0000E+00
  -6.350  0.0000E+00  0.0000E+00
  -6.340  0.0000E+00  0.0000E+00
  -6.330  0.0000E+00  0.0000E+00
  -6.320  0.0000E+00  0.0000E+00
  -6.310  0.0000E+00  0.0000E+00
  -6.300  0.0000E+00  0.0000E+00
  -6.290  0.0000E+00  0.0000E+00
  -6.280  0.0000E+00  0.0000E+00
  -6.270  0.0000E+00  0.0000E+00
  -6.260  0.0000E+00  0.0000E+00
  -6.250  0.0000E+00  0.0000E+00
  -6.240  0.0000E+00  0.0000E+00
  -6.230  0.0000E+00  0.0000E+00
  -6.220  0.0000E+00  0.0000E+00
  -6.210  0.0000E+00  0.0000E+00
  -6.200  0.0000E+00  0.0000E+00
  -6.190  0.0000E+00  0.0000E+00
  -6.180  0.0000E+00  0.0000E+00
  -6.170  0.0000E+00  0.0000E+00
  -6.160  0.0000E+00  0.0000E+00
  -6.150  0.0000E+00  0.0000E+00
  -6.140  0.0000E+00  0.0000E+00
  -6.130  0.0000E+00  0.0000E+00
  -6.120  0.0000E+00  0.0000E+00
  -6.110  0.0000E+00  0.0000E+00
  -6.100  0.0000E+00  0.0000E+00
  -6.090  0.0000E+00  0.0000E+00
  -6.080  0.0000E+00  0.0000E+00
  -6.070  0.0000E+00  0.0000E+00
  -6.060  0.0000E+00  0.0000E+00
  -6.050  0.0000E+00  0.0000E+00
  -6.040  0.0000E+00  0.0000E+00
  -6.030  0.0000E+00  0.0000E+00
  -6.020  0.0000E+00  0.0000E+00
  -6.010  0.0000E+00  0.0000E+00
  -6.000  0.0000E+00  0.0000E+00
  -5.990  0.0000E+00  0.0000E+00
  -5.980  0.0000E+00  0.0000E+00
  -5.970  0.0000E+00  0.0000E+00
  -5.960  0.0000E+00  0.0000E+00
  -5.950  0.0000E+00  0.0000E+00
  -5.940  0.0000E+00  0.0000E+00
  -5.930  0.0000E+00  0.0000E+00
  -5.920  0.0000E+00  0.0000E+00
  -5.910  0.0000E+00  0.0000E+00
  -5.900  0.0000E+00  0.0000E+00
  -5.890  0.0000E+00  0.0000E+00
  -5.880  0.0000E+00  0.0000E+00
  -5.870  0.0000E+00  0.0000E+00
  -5.860  0.0000E+00  0.0000E+00
  -5.850  0.0000E+00  0.0000E+00
  -5.840  0.0000E+00  0.0000E+00
  -5.830  0.0000E+00  0.0000E+00
  -5.820  0.0000E+00  0.0000E+00
  -5.810  0.0000E+00  0.0000E+00
  -5.800  0.0000E+00  0.0000E+00
  -5.790  0.0000E+00  0.0000E+00
  -5.780  0.0000E+00  0.0000E+00
  -5.770  0.0000E+00  0.0000E+00
  -5.760  0.0000E+00  0.0000E+00
  -5.750  0.0000E+00  0.0000E+00
  -5.740  0.0000E+00  0.0000E+00
  -5.730  0.0000E+00  0.0000E+00
  -5.720  0.0000E+00  0.0000E+00
  -5.710  0.0000E+00  0.0000E+00
  -5.700  0.0000E+00  0.0000E+00
  -5.690  0.0000E+00  0.0000E+00
  -5.680  0.0000E+00  0.0000E+00
  -5.670  0.0000E+00  0.0000E+00
  -5.660  0.0000E+00  0.0000E+00
  -5.650  0.0000E+00  0.0000E+00
  -5.640  0.0000E+00  0.0000E+00
  -5.630  0.0000E+00  0.0000E+00
  -5.620  0.0000E+00  0.0000E+00
  -5.610  0.1007E-03  0.1419E-06
  -5.600  0.1142E-02  0.5414E-05
  -5.590  0.3312E-02  0.2674E-04
  -5.580  0.6610E-02  0.7541E-04
  -5.570  0.1104E-01  0.1627E-03
  -5.560  0.1659E-01  0.2999E-03
  -5.550  0.2328E-01  0.4983E-03
  -5.540  0.3109E-01  0.7692E-03
  -5.530  0.4003E-01  0.1124E-02
  -5.520  0.6721E-01  0.1591E-02
  -5.510  0.1283E+00  0.2617E-02
  -5.500  0.1309E+00  0.3962E-02
  -5.490  0.8477E-01  0.5046E-02
  -5.480  0.8944E-01  0.5917E-02
  -5.470  0.9420E-01  0.6835E-02
  -5.460  0.9906E-01  0.7801E-02
  -5.450  0.1040E+00  0.8816E-02
  -5.440  0.1091E+00  0.9882E-02
  -5.430  0.1142E+00  0.1100E-01
  -5.420  0.1195E+00  0.1217E-01
  -5.410  0.1248E+00  0.1339E-01
  -5.400  0.1303E+00  0.1466E-01
  -5.390  0.1358E+00  0.1599E-01
  -5.380  0.1414E+00  0.1738E-01
  -5.370  0.1472E+00  0.1882E-01
  -5.360  0.1559E+00  0.2034E-01
  -5.350  0.1641E+00  0.2194E-01
  -5.340  0.1712E+00  0.2362E-01
  -5.330  0.1775E+00  0.2536E-01
  -5.320  0.1827E+00  0.2716E-01
  -5.310  0.1871E+00  0.2901E-01
  -5.300  0.1904E+00  0.3090E-01
  -5.290  0.1928E+00  0.3282E-01
  -5.280  0.1943E+00  0.3475E-01
  -5.270  0.1883E+00  0.3667E-01
  -5.260  0.1837E+00  0.3853E-01
  -5.250  0.1836E+00  0.4036E-01
  -5.240  0.1864E+00  0.4221E-01
  -5.230  0.1895E+00  0.4409E-01
  -5.220  0.1926E+00  0.4600E-01
  -5.210  0.1957E+00  0.4794E-01
  -5.200  0.1990E+00  0.4992E-01
  -5.190  0.2024E+00  0.5193E-01
  -5.180  0.2058E+00  0.5397E-01
  -5.170  0.2094E+00  0.5604E-01
  -5.160  0.2130E+00  0.5815E-01
  -5.150  0.2167E+00  0.6030E-01
  -5.140  0.2205E+00  0.6249E-01
  -5.130  0.2244E+00  0.6471E-01
  -5.120  0.2284E+00  0.6698E-01
  -5.110  0.2323E+00  0.6928E-01
  -5.100  0.2363E+00  0.7162E-01
  -5.090  0.2404E+00  0.7401E-01
  -5.080  0.2444E+00  0.7643E-01
  -5.070  0.2484E+00  0.7889E-01
  -5.060  0.2524E+00  0.8140E-01
  -5.050  0.2565E+00  0.8394E-01
  -5.040  0.2605E+00  0.8653E-01
  -5.030  0.2638E+00  0.8915E-01
  -5.020  0.2657E+00  0.9180E-01
  -5.010  0.2663E+00  0.9446E-01
  -5.000  0.2672E+00  0.9713E-01
  -4.990  0.2693E+00  0.9981E-01
  -4.980  0.2713E+00  0.1025E+00
  -4.970  0.2733E+00  0.1052E+00
  -4.960  0.2752E+00  0.1080E+00
  -4.950  0.2771E+00  0.1107E+00
  -4.940  0.2789E+00  0.1135E+00
  -4.930  0.2806E+00  0.1163E+00
  -4.920  0.2824E+00  0.1191E+00
  -4.910  0.2840E+00  0.1220E+00
  -4.900  0.2856E+00  0.1248E+00
  -4.890  0.2872E+00  0.1277E+00
  -4.880  0.2880E+00  0.1306E+00
  -4.870  0.2888E+00  0.1334E+00
  -4.860  0.2899E+00  0.1363E+00
  -4.850  0.2913E+00  0.1392E+00
  -4.840  0.2929E+00  0.1422E+00
  -4.830  0.2948E+00  0.1451E+00
  -4.820  0.2970E+00  0.1481E+00
  -4.810  0.2994E+00  0.1510E+00
  -4.800  0.3021E+00  0.1540E+00
  -4.790  0.3049E+00  0.1571E+00
  -4.780  0.3080E+00  0.1601E+00
  -4.770  0.3111E+00  0.1632E+00
  -4.760  0.3143E+00  0.1664E+00
  -4.750  0.3174E+00  0.1695E+00
  -4.740  0.3206E+00  0.1727E+00
  -4.730  0.3237E+00  0.1759E+00
  -4.720  0.3269E+00  0.1792E+00
  -4.710  0.3302E+00  0.1825E+00
  -4.700  0.3334E+00  0.1858E+00
  -4.690  0.3367E+00  0.1891E+00
  -4.680  0.3399E+00  0.1925E+00
  -4.670  0.3432E+00  0.1959E+00
  -4.660  0.3465E+00  0.1994E+00
  -4.650  0.3499E+00  0.2029E+00
  -4.640  0.3530E+00  0.2064E+00
  -4.630  0.3557E+00  0.2099E+00
  -4.620  0.3580E+00  0.2135E+00
  -4.610  0.3600E+00  0.2171E+00
  -4.600  0.3616E+00  0.2207E+00
  -4.590  0.3628E+00  0.2243E+00
  -4.580  0.3636E+00  0.2280E+00
  -4.570  0.3641E+00  0.2316E+00
  -4.560  0.3640E+00  0.2352E+00
  -4.550  0.3647E+00  0.2389E+00
  -4.540  0.3678E+00  0.2425E+00
  -4.530  0.3697E+00  0.2462E+00
  -4.520  0.3716E+00  0.2499E+00
  -4.510  0.3735E+00  0.2537E+00
  -4.500  0.3754E+00  0.2574E+00
  -4.490  0.3773E+00  0.2612E+00
  -4.480  0.3792E+00  0.2649E+00
  -4.470  0.3811E+00  0.2687E+00
  -4.460  0.3830E+00  0.2726E+00
  -4.450  0.3850E+00  0.2764E+00
  -4.440  0.3869E+00  0.2803E+00
  -4.430  0.3889E+00  0.2841E+00
  -4.420  0.3908E+00  0.2880E+00
  -4.410  0.3928E+00  0.2920E+00
  -4.400  0.3948E+00  0.2959E+00
  -4.390  0.3967E+00  0.2999E+00
  -4.380  0.3985E+00  0.3038E+00
  -4.370  0.4004E+00  0.3078E+00
  -4.360  0.4023E+00  0.3118E+00
  -4.350  0.4041E+00  0.3159E+00
  -4.340  0.4058E+00  0.3199E+00
  -4.330  0.4075E+00  0.3240E+00
  -4.320  0.4093E+00  0.3281E+00
  -4.310  0.4114E+00  0.3322E+00
  -4.300  0.4137E+00  0.3363E+00
  -4.290  0.4162E+00  0.3405E+00
  -4.280  0.4187E+00  0.3446E+00
  -4.270  0.4213E+00  0.3488E+00
  -4.260  0.4239E+00  0.3531E+00
  -4.250  0.4267E+00  0.3573E+00
  -4.240  0.4294E+00  0.3616E+00
  -4.230  0.4323E+00  0.3659E+00
  -4.220  0.4352E+00  0.3702E+00
  -4.210  0.4381E+00  0.3746E+00
  -4.200  0.4411E+00  0.3790E+00
  -4.190  0.4441E+00  0.3834E+00
  -4.180  0.4472E+00  0.3879E+00
  -4.170  0.4503E+00  0.3924E+00
  -4.160  0.4534E+00  0.3969E+00
  -4.150  0.4565E+00  0.4014E+00
  -4.140  0.4597E+00  0.4060E+00
  -4.130  0.4629E+00  0.4106E+00
  -4.120  0.4661E+00  0.4153E+00
  -4.110  0.4692E+00  0.4199E+00
  -4.100  0.4713E+00  0.4246E+00
  -4.090  0.4730E+00  0.4294E+00
  -4.080  0.4744E+00  0.4341E+00
  -4.070  0.4758E+00  0.4389E+00
  -4.060  0.4778E+00  0.4436E+00
  -4.050  0.4797E+00  0.4484E+00
  -4.040  0.4815E+00  0.4532E+00
  -4.030  0.4833E+00  0.4580E+00
  -4.020  0.4850E+00  0.4629E+00
  -4.010  0.4867E+00  0.4677E+00
  -4.000  0.4883E+00  0.4726E+00
  -3.990  0.4899E+00  0.4775E+00
  -3.980  0.4914E+00  0.4824E+00
  -3.970  0.4932E+00  0.4873E+00
  -3.960  0.4953E+00  0.4923E+00
  -3.950  0.4977E+00  0.4972E+00
  -3.940  0.5004E+00  0.5022E+00
  -3.930  0.5034E+00  0.5073E+00
  -3.920  0.5065E+00  0.5123E+00
  -3.910  0.5091E+00  0.5174E+00
  -3.900  0.5117E+00  0.5225E+00
  -3.890  0.5144E+00  0.5276E+00
  -3.880  0.5171E+00  0.5328E+00
  -3.870  0.5199E+00  0.5380E+00
  -3.860  0.5227E+00  0.5432E+00
  -3.850  0.5255E+00  0.5484E+00
  -3.840  0.5283E+00  0.5537E+00
  -3.830  0.5311E+00  0.5590E+00
  -3.820  0.5339E+00  0.5643E+00
  -3.810  0.5368E+00  0.5697E+00
  -3.800  0.5397E+00  0.5750E+00
  -3.790  0.5425E+00  0.5805E+00
  -3.780  0.5454E+00  0.5859E+00
  -3.770  0.5484E+00  0.5914E+00
  -3.760  0.5513E+00  0.5969E+00
  -3.750  0.5542E+00  0.6024E+00
  -3.740  0.5572E+00  0.6079E+00
  -3.730  0.5602E+00  0.6135E+00
  -3.720  0.5632E+00  0.6191E+00
  -3.710  0.5662E+00  0.6248E+00
  -3.700  0.5691E+00  0.6305E+00
  -3.690  0.5722E+00  0.6362E+00
  -3.680  0.5757E+00  0.6419E+00
  -3.670  0.5794E+00  0.6477E+00
  -3.660  0.5832E+00  0.6535E+00
  -3.650  0.5871E+00  0.6594E+00
  -3.640  0.5911E+00  0.6652E+00
  -3.630  0.5952E+00  0.6712E+00
  -3.620  0.5994E+00  0.6772E+00
  -3.610  0.6037E+00  0.6832E+00
  -3.600  0.6082E+00  0.6892E+00
  -3.590  0.6127E+00  0.6953E+00
  -3.580  0.6174E+00  0.7015E+00
  -3.570  0.6221E+00  0.7077E+00
  -3.560  0.6270E+00  0.7139E+00
  -3.550  0.6320E+00  0.7202E+00
  -3.540  0.6371E+00  0.7266E+00
  -3.530  0.6423E+00  0.7330E+00
  -3.520  0.6475E+00  0.7394E+00
  -3.510  0.6528E+00  0.7459E+00
  -3.500  0.6580E+00  0.7525E+00
  -3.490  0.6633E+00  0.7591E+00
  -3.480  0.6685E+00  0.7657E+00
  -3.470  0.6737E+00  0.7724E+00
  -3.460  0.6785E+00  0.7792E+00
  -3.450  0.6843E+00  0.7860E+00
  -3.440  0.6903E+00  0.7929E+00
  -3.430  0.6964E+00  0.7998E+00
  -3.420  0.7026E+00  0.8068E+00
  -3.410  0.7089E+00  0.8139E+00
  -3.400  0.7154E+00  0.8210E+00
  -3.390  0.7220E+00  0.8282E+00
  -3.380  0.7287E+00  0.8354E+00
  -3.370  0.7356E+00  0.8428E+00
  -3.360  0.7425E+00  0.8501E+00
  -3.350  0.7497E+00  0.8576E+00
  -3.340  0.7591E+00  0.8651E+00
  -3.330  0.7953E+00  0.8729E+00
  -3.320  0.8273E+00  0.8811E+00
  -3.310  0.8413E+00  0.8894E+00
  -3.300  0.8540E+00  0.8979E+00
  -3.290  0.8653E+00  0.9065E+00
  -3.280  0.8752E+00  0.9152E+00
  -3.270  0.8838E+00  0.9240E+00
  -3.260  0.8911E+00  0.9328E+00
  -3.250  0.8970E+00  0.9418E+00
  -3.240  0.9015E+00  0.9508E+00
  -3.230  0.9030E+00  0.9598E+00
  -3.220  0.8980E+00  0.9688E+00
  -3.210  0.8861E+00  0.9777E+00
  -3.200  0.8698E+00  0.9865E+00
  -3.190  0.8671E+00  0.9952E+00
  -3.180  0.8645E+00  0.1004E+01
  -3.170  0.8620E+00  0.1012E+01
  -3.160  0.8596E+00  0.1021E+01
  -3.150  0.8574E+00  0.1030E+01
  -3.140  0.8552E+00  0.1038E+01
  -3.130  0.8533E+00  0.1047E+01
  -3.120  0.8514E+00  0.1055E+01
  -3.110  0.8497E+00  0.1064E+01
  -3.100  0.8481E+00  0.1072E+01
  -3.090  0.8466E+00  0.1081E+01
  -3.080  0.8453E+00  0.1089E+01
  -3.070  0.8440E+00  0.1098E+01
  -3.060  0.8426E+00  0.1106E+01
  -3.050  0.8411E+00  0.1115E+01
  -3.040  0.8396E+00  0.1123E+01
  -3.030  0.8379E+00  0.1131E+01
  -3.020  0.8362E+00  0.1140E+01
  -3.010  0.8345E+00  0.1148E+01
  -3.000  0.8326E+00  0.1156E+01
  -2.990  0.8277E+00  0.1165E+01
  -2.980  0.8199E+00  0.1173E+01
  -2.970  0.8152E+00  0.1181E+01
  -2.960  0.8136E+00  0.1189E+01
  -2.950  0.8126E+00  0.1197E+01
  -2.940  0.8112E+00  0.1206E+01
  -2.930  0.8093E+00  0.1214E+01
  -2.920  0.8070E+00  0.1222E+01
  -2.910  0.8042E+00  0.1230E+01
  -2.900  0.8016E+00  0.1238E+01
  -2.890  0.8009E+00  0.1246E+01
  -2.880  0.8022E+00  0.1254E+01
  -2.870  0.8052E+00  0.1262E+01
  -2.860  0.8102E+00  0.1270E+01
  -2.850  0.8089E+00  0.1278E+01
  -2.840  0.8032E+00  0.1286E+01
  -2.830  0.7965E+00  0.1294E+01
  -2.820  0.7901E+00  0.1302E+01
  -2.810  0.7840E+00  0.1310E+01
  -2.800  0.7781E+00  0.1318E+01
  -2.790  0.7724E+00  0.1325E+01
  -2.780  0.7670E+00  0.1333E+01
  -2.770  0.7619E+00  0.1341E+01
  -2.760  0.7570E+00  0.1348E+01
  -2.750  0.7524E+00  0.1356E+01
  -2.740  0.7481E+00  0.1363E+01
  -2.730  0.7440E+00  0.1371E+01
  -2.720  0.7401E+00  0.1378E+01
  -2.710  0.7355E+00  0.1386E+01
  -2.700  0.7307E+00  0.1393E+01
  -2.690  0.7261E+00  0.1400E+01
  -2.680  0.7217E+00  0.1408E+01
  -2.670  0.7174E+00  0.1415E+01
  -2.660  0.7132E+00  0.1422E+01
  -2.650  0.7092E+00  0.1429E+01
  -2.640  0.7052E+00  0.1436E+01
  -2.630  0.7014E+00  0.1443E+01
  -2.620  0.6977E+00  0.1450E+01
  -2.610  0.6942E+00  0.1457E+01
  -2.600  0.6908E+00  0.1464E+01
  -2.590  0.6875E+00  0.1471E+01
  -2.580  0.6843E+00  0.1478E+01
  -2.570  0.6813E+00  0.1485E+01
  -2.560  0.6784E+00  0.1491E+01
  -2.550  0.6757E+00  0.1498E+01
  -2.540  0.6731E+00  0.1505E+01
  -2.530  0.6706E+00  0.1512E+01
  -2.520  0.6683E+00  0.1518E+01
  -2.510  0.6660E+00  0.1525E+01
  -2.500  0.6638E+00  0.1532E+01
  -2.490  0.6614E+00  0.1538E+01
  -2.480  0.6591E+00  0.1545E+01
  -2.470  0.6567E+00  0.1551E+01
  -2.460  0.6542E+00  0.1558E+01
  -2.450  0.6517E+00  0.1564E+01
  -2.440  0.6492E+00  0.1571E+01
  -2.430  0.6467E+00  0.1577E+01
  -2.420  0.6441E+00  0.1584E+01
  -2.410  0.6414E+00  0.1590E+01
  -2.400  0.6387E+00  0.1597E+01
  -2.390  0.6360E+00  0.1603E+01
  -2.380  0.6333E+00  0.1609E+01
  -2.370  0.6305E+00  0.1616E+01
  -2.360  0.6283E+00  0.1622E+01
  -2.350  0.6286E+00  0.1628E+01
  -2.340  0.6316E+00  0.1635E+01
  -2.330  0.6371E+00  0.1641E+01
  -2.320  0.6452E+00  0.1647E+01
  -2.310  0.6559E+00  0.1654E+01
  -2.300  0.6691E+00  0.1661E+01
  -2.290  0.6075E+00  0.1667E+01
  -2.280  0.6048E+00  0.1673E+01
  -2.270  0.6026E+00  0.1679E+01
  -2.260  0.6004E+00  0.1685E+01
  -2.250  0.5981E+00  0.1691E+01
  -2.240  0.5958E+00  0.1697E+01
  -2.230  0.5935E+00  0.1703E+01
  -2.220  0.5912E+00  0.1709E+01
  -2.210  0.5888E+00  0.1715E+01
  -2.200  0.5865E+00  0.1721E+01
  -2.190  0.5841E+00  0.1727E+01
  -2.180  0.5816E+00  0.1733E+01
  -2.170  0.5792E+00  0.1738E+01
  -2.160  0.5767E+00  0.1744E+01
  -2.150  0.5742E+00  0.1750E+01
  -2.140  0.5716E+00  0.1756E+01
  -2.130  0.5690E+00  0.1761E+01
  -2.120  0.5665E+00  0.1767E+01
  -2.110  0.5638E+00  0.1773E+01
  -2.100  0.5612E+00  0.1778E+01
  -2.090  0.5585E+00  0.1784E+01
  -2.080  0.5558E+00  0.1789E+01
  -2.070  0.5531E+00  0.1795E+01
  -2.060  0.5503E+00  0.1800E+01
  -2.050  0.5475E+00  0.1806E+01
  -2.040  0.5449E+00  0.1811E+01
  -2.030  0.5436E+00  0.1817E+01
  -2.020  0.5428E+00  0.1822E+01
  -2.010  0.5412E+00  0.1828E+01
  -2.000  0.5393E+00  0.1833E+01
  -1.990  0.5371E+00  0.1839E+01
  -1.980  0.5346E+00  0.1844E+01
  -1.970  0.5318E+00  0.1849E+01
  -1.960  0.5288E+00  0.1855E+01
  -1.950  0.5255E+00  0.1860E+01
  -1.940  0.5220E+00  0.1865E+01
  -1.930  0.5181E+00  0.1870E+01
  -1.920  0.5139E+00  0.1875E+01
  -1.910  0.5077E+00  0.1880E+01
  -1.900  0.5008E+00  0.1886E+01
  -1.890  0.4931E+00  0.1891E+01
  -1.880  0.4847E+00  0.1895E+01
  -1.870  0.4754E+00  0.1900E+01
  -1.860  0.4653E+00  0.1905E+01
  -1.850  0.4544E+00  0.1909E+01
  -1.840  0.4428E+00  0.1914E+01
  -1.830  0.4303E+00  0.1918E+01
  -1.820  0.4171E+00  0.1923E+01
  -1.810  0.4031E+00  0.1927E+01
  -1.800  0.3868E+00  0.1931E+01
  -1.790  0.3702E+00  0.1934E+01
  -1.780  0.3541E+00  0.1938E+01
  -1.770  0.3385E+00  0.1942E+01
  -1.760  0.3234E+00  0.1945E+01
  -1.750  0.3110E+00  0.1948E+01
  -1.740  0.2993E+00  0.1951E+01
  -1.730  0.2879E+00  0.1954E+01
  -1.720  0.2767E+00  0.1957E+01
  -1.710  0.2656E+00  0.1960E+01
  -1.700  0.2547E+00  0.1962E+01
  -1.690  0.2440E+00  0.1965E+01
  -1.680  0.2335E+00  0.1967E+01
  -1.670  0.2232E+00  0.1969E+01
  -1.660  0.2131E+00  0.1971E+01
  -1.650  0.2031E+00  0.1974E+01
  -1.640  0.1934E+00  0.1976E+01
  -1.630  0.1838E+00  0.1977E+01
  -1.620  0.1744E+00  0.1979E+01
  -1.610  0.1652E+00  0.1981E+01
  -1.600  0.1562E+00  0.1982E+01
  -1.590  0.1473E+00  0.1984E+01
  -1.580  0.1387E+00  0.1985E+01
  -1.570  0.1302E+00  0.1987E+01
  -1.560  0.1220E+00  0.1988E+01
  -1.550  0.1139E+00  0.1989E+01
  -1.540  0.1060E+00  0.1990E+01
  -1.530  0.9840E-01  0.1991E+01
  -1.520  0.9108E-01  0.1992E+01
  -1.510  0.8402E-01  0.1993E+01
  -1.500  0.7724E-01  0.1994E+01
  -1.490  0.7072E-01  0.1995E+01
  -1.480  0.6447E-01  0.1995E+01
  -1.470  0.5848E-01  0.1996E+01
  -1.460  0.5277E-01  0.1997E+01
  -1.450  0.4733E-01  0.1997E+01
  -1.440  0.4215E-01  0.1998E+01
  -1.430  0.3724E-01  0.1998E+01
  -1.420  0.3260E-01  0.1998E+01
  -1.410  0.2825E-01  0.1999E+01
  -1.400  0.2435E-01  0.1999E+01
  -1.390  0.2093E-01  0.1999E+01
  -1.380  0.1799E-01  0.1999E+01
  -1.370  0.1593E-01  0.1999E+01
  -1.360  0.1474E-01  0.2000E+01
  -1.350  0.1387E-01  0.2000E+01
  -1.340  0.1333E-01  0.2000E+01
  -1.330  0.1312E-01  0.2000E+01
  -1.320  0.1323E-01  0.2000E+01
  -1.310  0.1367E-01  0.2000E+01
  -1.300  0.1443E-01  0.2000E+01
  -1.290  0.1552E-01  0.2001E+01
  -1.280  0.1700E-01  0.2001E+01
  -1.270  0.1899E-01  0.2001E+01
  -1.260  0.2150E-01  0.2001E+01
  -1.250  0.2452E-01  0.2001E+01
  -1.240  0.2807E-01  0.2002E+01
  -1.230  0.3200E-01  0.2002E+01
  -1.220  0.3622E-01  0.2002E+01
  -1.210  0.4071E-01  0.2003E+01
  -1.200  0.4549E-01  0.2003E+01
  -1.190  0.5055E-01  0.2004E+01
  -1.180  0.5588E-01  0.2004E+01
  -1.170  0.6150E-01  0.2005E+01
  -1.160  0.6741E-01  0.2005E+01
  -1.150  0.7359E-01  0.2006E+01
  -1.140  0.7998E-01  0.2007E+01
  -1.130  0.8651E-01  0.2008E+01
  -1.120  0.9320E-01  0.2008E+01
  -1.110  0.1000E+00  0.2009E+01
  -1.100  0.1070E+00  0.2010E+01
  -1.090  0.1141E+00  0.2012E+01
  -1.080  0.1214E+00  0.2013E+01
  -1.070  0.1288E+00  0.2014E+01
  -1.060  0.1364E+00  0.2015E+01
  -1.050  0.1441E+00  0.2017E+01
  -1.040  0.1520E+00  0.2018E+01
  -1.030  0.1600E+00  0.2020E+01
  -1.020  0.1682E+00  0.2021E+01
  -1.010  0.1765E+00  0.2023E+01
  -1.000  0.1849E+00  0.2025E+01
  -0.990  0.1935E+00  0.2027E+01
  -0.980  0.2023E+00  0.2029E+01
  -0.970  0.2112E+00  0.2031E+01
  -0.960  0.2202E+00  0.2033E+01
  -0.950  0.2294E+00  0.2035E+01
  -0.940  0.2388E+00  0.2038E+01
  -0.930  0.2483E+00  0.2040E+01
  -0.920  0.2579E+00  0.2043E+01
  -0.910  0.2677E+00  0.2045E+01
  -0.900  0.2776E+00  0.2048E+01
  -0.890  0.2877E+00  0.2051E+01
  -0.880  0.2979E+00  0.2054E+01
  -0.870  0.3083E+00  0.2057E+01
  -0.860  0.3188E+00  0.2060E+01
  -0.850  0.3295E+00  0.2063E+01
  -0.840  0.3441E+00  0.2066E+01
  -0.830  0.3599E+00  0.2070E+01
  -0.820  0.3756E+00  0.2074E+01
  -0.810  0.3913E+00  0.2078E+01
  -0.800  0.4069E+00  0.2081E+01
  -0.790  0.4226E+00  0.2086E+01
  -0.780  0.4382E+00  0.2090E+01
  -0.770  0.4538E+00  0.2094E+01
  -0.760  0.4694E+00  0.2099E+01
  -0.750  0.4849E+00  0.2104E+01
  -0.740  0.5004E+00  0.2109E+01
  -0.730  0.5142E+00  0.2114E+01
  -0.720  0.5240E+00  0.2119E+01
  -0.710  0.5332E+00  0.2124E+01
  -0.700  0.5421E+00  0.2130E+01
  -0.690  0.5508E+00  0.2135E+01
  -0.680  0.5591E+00  0.2141E+01
  -0.670  0.5672E+00  0.2146E+01
  -0.660  0.5750E+00  0.2152E+01
  -0.650  0.5825E+00  0.2158E+01
  -0.640  0.5888E+00  0.2164E+01
  -0.630  0.5955E+00  0.2170E+01
  -0.620  0.6024E+00  0.2176E+01
  -0.610  0.6098E+00  0.2182E+01
  -0.600  0.6190E+00  0.2188E+01
  -0.590  0.6302E+00  0.2194E+01
  -0.580  0.6436E+00  0.2200E+01
  -0.570  0.6590E+00  0.2207E+01
  -0.560  0.6766E+00  0.2214E+01
  -0.550  0.6962E+00  0.2220E+01
  -0.540  0.7179E+00  0.2228E+01
  -0.530  0.7417E+00  0.2235E+01
  -0.520  0.7676E+00  0.2242E+01
  -0.510  0.7956E+00  0.2250E+01
  -0.500  0.9096E+00  0.2259E+01
  -0.490  0.8833E+00  0.2268E+01
  -0.480  0.9268E+00  0.2277E+01
  -0.470  0.9752E+00  0.2286E+01
  -0.460  0.1029E+01  0.2296E+01
  -0.450  0.1087E+01  0.2307E+01
  -0.440  0.1151E+01  0.2318E+01
  -0.430  0.1225E+01  0.2330E+01
  -0.420  0.1312E+01  0.2342E+01
  -0.410  0.1411E+01  0.2356E+01
  -0.400  0.1544E+01  0.2371E+01
  -0.390  0.1558E+01  0.2386E+01
  -0.380  0.1550E+01  0.2402E+01
  -0.370  0.1541E+01  0.2417E+01
  -0.360  0.1528E+01  0.2433E+01
  -0.350  0.1502E+01  0.2448E+01
  -0.340  0.1484E+01  0.2463E+01
  -0.330  0.1468E+01  0.2478E+01
  -0.320  0.1451E+01  0.2492E+01
  -0.310  0.1436E+01  0.2507E+01
  -0.300  0.1420E+01  0.2521E+01
  -0.290  0.1403E+01  0.2535E+01
  -0.280  0.1384E+01  0.2549E+01
  -0.270  0.1365E+01  0.2563E+01
  -0.260  0.1345E+01  0.2576E+01
  -0.250  0.1324E+01  0.2590E+01
  -0.240  0.1302E+01  0.2603E+01
  -0.230  0.1278E+01  0.2616E+01
  -0.220  0.1255E+01  0.2628E+01
  -0.210  0.1231E+01  0.2641E+01
  -0.200  0.1206E+01  0.2653E+01
  -0.190  0.1182E+01  0.2665E+01
  -0.180  0.1158E+01  0.2677E+01
  -0.170  0.1133E+01  0.2688E+01
  -0.160  0.1108E+01  0.2699E+01
  -0.150  0.1082E+01  0.2710E+01
  -0.140  0.1057E+01  0.2721E+01
  -0.130  0.1032E+01  0.2731E+01
  -0.120  0.1009E+01  0.2741E+01
  -0.110  0.9863E+00  0.2751E+01
  -0.100  0.9650E+00  0.2761E+01
  -0.090  0.9446E+00  0.2771E+01
  -0.080  0.9252E+00  0.2780E+01
  -0.070  0.9068E+00  0.2789E+01
  -0.060  0.8894E+00  0.2798E+01
  -0.050  0.8729E+00  0.2807E+01
  -0.040  0.8574E+00  0.2816E+01
  -0.030  0.8429E+00  0.2824E+01
  -0.020  0.8294E+00  0.2833E+01
  -0.010  0.8168E+00  0.2841E+01
  -0.000  0.8053E+00  0.2849E+01
   0.010  0.7949E+00  0.2857E+01
   0.020  0.7855E+00  0.2865E+01
   0.030  0.7766E+00  0.2873E+01
   0.040  0.7678E+00  0.2880E+01
   0.050  0.7592E+00  0.2888E+01
   0.060  0.7507E+00  0.2896E+01
   0.070  0.7424E+00  0.2903E+01
   0.080  0.7342E+00  0.2910E+01
   0.090  0.7262E+00  0.2918E+01
   0.100  0.7184E+00  0.2925E+01
   0.110  0.7115E+00  0.2932E+01
   0.120  0.7047E+00  0.2939E+01
   0.130  0.6978E+00  0.2946E+01
   0.140  0.6910E+00  0.2953E+01
   0.150  0.6843E+00  0.2960E+01
   0.160  0.6776E+00  0.2967E+01
   0.170  0.6710E+00  0.2974E+01
   0.180  0.6644E+00  0.2980E+01
   0.190  0.6578E+00  0.2987E+01
   0.200  0.6512E+00  0.2993E+01
   0.210  0.6447E+00  0.3000E+01
   0.220  0.6383E+00  0.3006E+01
   0.230  0.6320E+00  0.3013E+01
   0.240  0.6258E+00  0.3019E+01
   0.250  0.6198E+00  0.3025E+01
   0.260  0.6140E+00  0.3031E+01
   0.270  0.6082E+00  0.3037E+01
   0.280  0.6026E+00  0.3043E+01
   0.290  0.5972E+00  0.3049E+01
   0.300  0.5918E+00  0.3055E+01
   0.310  0.5866E+00  0.3061E+01
   0.320  0.5816E+00  0.3067E+01
   0.330  0.5766E+00  0.3073E+01
   0.340  0.5718E+00  0.3079E+01
   0.350  0.5671E+00  0.3084E+01
   0.360  0.5625E+00  0.3090E+01
   0.370  0.5581E+00  0.3096E+01
   0.380  0.5538E+00  0.3101E+01
   0.390  0.5494E+00  0.3107E+01
   0.400  0.5449E+00  0.3112E+01
   0.410  0.5412E+00  0.3118E+01
   0.420  0.5376E+00  0.3123E+01
   0.430  0.5339E+00  0.3128E+01
   0.440  0.5303E+00  0.3134E+01
   0.450  0.5268E+00  0.3139E+01
   0.460  0.5232E+00  0.3144E+01
   0.470  0.5197E+00  0.3149E+01
   0.480  0.5162E+00  0.3155E+01
   0.490  0.5128E+00  0.3160E+01
   0.500  0.5093E+00  0.3165E+01
   0.510  0.5059E+00  0.3170E+01
   0.520  0.5026E+00  0.3175E+01
   0.530  0.4992E+00  0.3180E+01
   0.540  0.4959E+00  0.3185E+01
   0.550  0.4926E+00  0.3190E+01
   0.560  0.4894E+00  0.3195E+01
   0.570  0.4861E+00  0.3200E+01
   0.580  0.4829E+00  0.3204E+01
   0.590  0.4797E+00  0.3209E+01
   0.600  0.4766E+00  0.3214E+01
   0.610  0.4735E+00  0.3219E+01
   0.620  0.4704E+00  0.3224E+01
   0.630  0.4673E+00  0.3228E+01
   0.640  0.4643E+00  0.3233E+01
   0.650  0.4613E+00  0.3238E+01
   0.660  0.4583E+00  0.3242E+01
   0.670  0.4553E+00  0.3247E+01
   0.680  0.4523E+00  0.3251E+01
   0.690  0.4494E+00  0.3256E+01
   0.700  0.4465E+00  0.3260E+01
   0.710  0.4436E+00  0.3265E+01
   0.720  0.4408E+00  0.3269E+01
   0.730  0.4379E+00  0.3273E+01
   0.740  0.4351E+00  0.3278E+01
   0.750  0.4342E+00  0.3282E+01
   0.760  0.4328E+00  0.3287E+01
   0.770  0.4311E+00  0.3291E+01
   0.780  0.4289E+00  0.3295E+01
   0.790  0.4265E+00  0.3299E+01
   0.800  0.4242E+00  0.3304E+01
   0.810  0.4218E+00  0.3308E+01
   0.820  0.4194E+00  0.3312E+01
   0.830  0.4170E+00  0.3316E+01
   0.840  0.4146E+00  0.3320E+01
   0.850  0.4121E+00  0.3325E+01
   0.860  0.4096E+00  0.3329E+01
   0.870  0.4072E+00  0.3333E+01
   0.880  0.4046E+00  0.3337E+01
   0.890  0.4021E+00  0.3341E+01
   0.900  0.3995E+00  0.3345E+01
   0.910  0.3970E+00  0.3349E+01
   0.920  0.3944E+00  0.3353E+01
   0.930  0.3917E+00  0.3357E+01
   0.940  0.3891E+00  0.3361E+01
   0.950  0.3865E+00  0.3365E+01
   0.960  0.3840E+00  0.3368E+01
   0.970  0.3815E+00  0.3372E+01
   0.980  0.3790E+00  0.3376E+01
   0.990  0.3766E+00  0.3380E+01
   1.000  0.3742E+00  0.3384E+01
   1.010  0.3718E+00  0.3387E+01
   1.020  0.3694E+00  0.3391E+01
   1.030  0.3671E+00  0.3395E+01
   1.040  0.3649E+00  0.3398E+01
   1.050  0.3626E+00  0.3402E+01
   1.060  0.3604E+00  0.3406E+01
   1.070  0.3582E+00  0.3409E+01
   1.080  0.3561E+00  0.3413E+01
   1.090  0.3539E+00  0.3416E+01
   1.100  0.3518E+00  0.3420E+01
   1.110  0.3498E+00  0.3423E+01
   1.120  0.3477E+00  0.3427E+01
   1.130  0.3457E+00  0.3430E+01
   1.140  0.3438E+00  0.3434E+01
   1.150  0.3418E+00  0.3437E+01
   1.160  0.3398E+00  0.3441E+01
   1.170  0.3379E+00  0.3444E+01
   1.180  0.3359E+00  0.3447E+01
   1.190  0.3340E+00  0.3451E+01
   1.200  0.3321E+00  0.3454E+01
   1.210  0.3302E+00  0.3457E+01
   1.220  0.3283E+00  0.3461E+01
   1.230  0.3264E+00  0.3464E+01
   1.240  0.3246E+00  0.3467E+01
   1.250  0.3227E+00  0.3470E+01
   1.260  0.3208E+00  0.3474E+01
   1.270  0.3190E+00  0.3477E+01
   1.280  0.3171E+00  0.3480E+01
   1.290  0.3153E+00  0.3483E+01
   1.300  0.3136E+00  0.3486E+01
   1.310  0.3118E+00  0.3489E+01
   1.320  0.3101E+00  0.3493E+01
   1.330  0.3084E+00  0.3496E+01
   1.340  0.3067E+00  0.3499E+01
   1.350  0.3051E+00  0.3502E+01
   1.360  0.3035E+00  0.3505E+01
   1.370  0.3019E+00  0.3508E+01
   1.380  0.3003E+00  0.3511E+01
   1.390  0.2988E+00  0.3514E+01
   1.400  0.2973E+00  0.3517E+01
   1.410  0.2958E+00  0.3520E+01
   1.420  0.2943E+00  0.3523E+01
   1.430  0.2929E+00  0.3526E+01
   1.440  0.2914E+00  0.3529E+01
   1.450  0.2901E+00  0.3531E+01
   1.460  0.2888E+00  0.3534E+01
   1.470  0.2875E+00  0.3537E+01
   1.480  0.2863E+00  0.3540E+01
   1.490  0.2850E+00  0.3543E+01
   1.500  0.2837E+00  0.3546E+01
   1.510  0.2824E+00  0.3549E+01
   1.520  0.2811E+00  0.3551E+01
   1.530  0.2799E+00  0.3554E+01
   1.540  0.2785E+00  0.3557E+01
   1.550  0.2773E+00  0.3560E+01
   1.560  0.2764E+00  0.3563E+01
   1.570  0.2754E+00  0.3565E+01
   1.580  0.2745E+00  0.3568E+01
   1.590  0.2734E+00  0.3571E+01
   1.600  0.2724E+00  0.3574E+01
   1.610  0.2713E+00  0.3576E+01
   1.620  0.2702E+00  0.3579E+01
   1.630  0.2690E+00  0.3582E+01
   1.640  0.2678E+00  0.3584E+01
   1.650  0.2666E+00  0.3587E+01
   1.660  0.2653E+00  0.3590E+01
   1.670  0.2640E+00  0.3592E+01
   1.680  0.2627E+00  0.3595E+01
   1.690  0.2614E+00  0.3598E+01
   1.700  0.2600E+00  0.3600E+01
   1.710  0.2585E+00  0.3603E+01
   1.720  0.2571E+00  0.3605E+01
   1.730  0.2556E+00  0.3608E+01
   1.740  0.2539E+00  0.3611E+01
   1.750  0.2522E+00  0.3613E+01
   1.760  0.2506E+00  0.3616E+01
   1.770  0.2489E+00  0.3618E+01
   1.780  0.2473E+00  0.3621E+01
   1.790  0.2456E+00  0.3623E+01
   1.800  0.2440E+00  0.3625E+01
   1.810  0.2424E+00  0.3628E+01
   1.820  0.2409E+00  0.3630E+01
   1.830  0.2393E+00  0.3633E+01
   1.840  0.2377E+00  0.3635E+01
   1.850  0.2362E+00  0.3637E+01
   1.860  0.2347E+00  0.3640E+01
   1.870  0.2332E+00  0.3642E+01
   1.880  0.2317E+00  0.3644E+01
   1.890  0.2303E+00  0.3647E+01
   1.900  0.2288E+00  0.3649E+01
   1.910  0.2274E+00  0.3651E+01
   1.920  0.2260E+00  0.3654E+01
   1.930  0.2252E+00  0.3656E+01
   1.940  0.2258E+00  0.3658E+01
   1.950  0.2278E+00  0.3660E+01
   1.960  0.2312E+00  0.3663E+01
   1.970  0.2359E+00  0.3665E+01
   1.980  0.2420E+00  0.3667E+01
   1.990  0.2494E+00  0.3670E+01
   2.000  0.2581E+00  0.3672E+01
   2.010  0.2683E+00  0.3675E+01
   2.020  0.2801E+00  0.3678E+01
   2.030  0.2932E+00  0.3681E+01
   2.040  0.3077E+00  0.3684E+01
   2.050  0.3235E+00  0.3687E+01
   2.060  0.3407E+00  0.3690E+01
   2.070  0.3592E+00  0.3694E+01
   2.080  0.3791E+00  0.3697E+01
   2.090  0.4732E+00  0.3701E+01
   2.100  0.5771E+00  0.3707E+01
   2.110  0.6564E+00  0.3713E+01
   2.120  0.7096E+00  0.3720E+01
   2.130  0.7502E+00  0.3727E+01
   2.140  0.8016E+00  0.3735E+01
   2.150  0.8504E+00  0.3743E+01
   2.160  0.8964E+00  0.3752E+01
   2.170  0.9398E+00  0.3761E+01
   2.180  0.9804E+00  0.3771E+01
   2.190  0.1018E+01  0.3781E+01
   2.200  0.1048E+01  0.3791E+01
   2.210  0.1077E+01  0.3802E+01
   2.220  0.1105E+01  0.3813E+01
   2.230  0.1133E+01  0.3824E+01
   2.240  0.1160E+01  0.3835E+01
   2.250  0.1186E+01  0.3847E+01
   2.260  0.1202E+01  0.3859E+01
   2.270  0.1211E+01  0.3871E+01
   2.280  0.1219E+01  0.3883E+01
   2.290  0.1225E+01  0.3895E+01
   2.300  0.1230E+01  0.3908E+01
   2.310  0.1233E+01  0.3920E+01
   2.320  0.1235E+01  0.3932E+01
   2.330  0.1235E+01  0.3945E+01
   2.340  0.1231E+01  0.3957E+01
   2.350  0.1224E+01  0.3969E+01
   2.360  0.1217E+01  0.3981E+01
   2.370  0.1209E+01  0.3994E+01
   2.380  0.1200E+01  0.4006E+01
   2.390  0.1191E+01  0.4018E+01
   2.400  0.1181E+01  0.4029E+01
   2.410  0.1171E+01  0.4041E+01
   2.420  0.1162E+01  0.4053E+01
   2.430  0.1153E+01  0.4064E+01
   2.440  0.1144E+01  0.4076E+01
   2.450  0.1137E+01  0.4087E+01
   2.460  0.1133E+01  0.4099E+01
   2.470  0.1129E+01  0.4110E+01
   2.480  0.1125E+01  0.4121E+01
   2.490  0.1122E+01  0.4132E+01
   2.500  0.1120E+01  0.4144E+01
   2.510  0.1117E+01  0.4155E+01
   2.520  0.1114E+01  0.4166E+01
   2.530  0.1112E+01  0.4177E+01
   2.540  0.1110E+01  0.4188E+01
   2.550  0.1109E+01  0.4199E+01
   2.560  0.1107E+01  0.4210E+01
   2.570  0.1106E+01  0.4221E+01
   2.580  0.1105E+01  0.4233E+01
   2.590  0.1130E+01  0.4244E+01
   2.600  0.1123E+01  0.4255E+01
   2.610  0.1107E+01  0.4266E+01
   2.620  0.1093E+01  0.4277E+01
   2.630  0.1079E+01  0.4288E+01
   2.640  0.1068E+01  0.4299E+01
   2.650  0.1058E+01  0.4309E+01
   2.660  0.1049E+01  0.4320E+01
   2.670  0.1042E+01  0.4330E+01
   2.680  0.1037E+01  0.4341E+01
   2.690  0.1033E+01  0.4351E+01
   2.700  0.1031E+01  0.4361E+01
   2.710  0.1029E+01  0.4372E+01
   2.720  0.1027E+01  0.4382E+01
   2.730  0.1026E+01  0.4392E+01
   2.740  0.1025E+01  0.4402E+01
   2.750  0.1024E+01  0.4413E+01
   2.760  0.1023E+01  0.4423E+01
   2.770  0.1022E+01  0.4433E+01
   2.780  0.1022E+01  0.4443E+01
   2.790  0.1031E+01  0.4454E+01
   2.800  0.1037E+01  0.4464E+01
   2.810  0.1038E+01  0.4474E+01
   2.820  0.1035E+01  0.4485E+01
   2.830  0.1028E+01  0.4495E+01
   2.840  0.1016E+01  0.4505E+01
   2.850  0.1006E+01  0.4515E+01
   2.860  0.1005E+01  0.4525E+01
   2.870  0.1004E+01  0.4536E+01
   2.880  0.1004E+01  0.4546E+01
   2.890  0.1006E+01  0.4556E+01
   2.900  0.1008E+01  0.4566E+01
   2.910  0.1011E+01  0.4576E+01
   2.920  0.1013E+01  0.4586E+01
   2.930  0.1015E+01  0.4596E+01
   2.940  0.1017E+01  0.4606E+01
   2.950  0.1018E+01  0.4616E+01
   2.960  0.1020E+01  0.4627E+01
   2.970  0.1022E+01  0.4637E+01
   2.980  0.1024E+01  0.4647E+01
   2.990  0.1027E+01  0.4657E+01
   3.000  0.1030E+01  0.4668E+01
   3.010  0.1034E+01  0.4678E+01
   3.020  0.1037E+01  0.4688E+01
   3.030  0.1041E+01  0.4699E+01
   3.040  0.1045E+01  0.4709E+01
   3.050  0.1049E+01  0.4720E+01
   3.060  0.1053E+01  0.4730E+01
   3.070  0.1057E+01  0.4741E+01
   3.080  0.1061E+01  0.4751E+01
   3.090  0.1065E+01  0.4762E+01
   3.100  0.1070E+01  0.4772E+01
   3.110  0.1075E+01  0.4783E+01
   3.120  0.1079E+01  0.4794E+01
   3.130  0.1084E+01  0.4805E+01
   3.140  0.1090E+01  0.4816E+01
   3.150  0.1095E+01  0.4827E+01
   3.160  0.1101E+01  0.4838E+01
   3.170  0.1107E+01  0.4849E+01
   3.180  0.1113E+01  0.4860E+01
   3.190  0.1326E+01  0.4872E+01
   3.200  0.1197E+01  0.4885E+01
   3.210  0.1199E+01  0.4897E+01
   3.220  0.1197E+01  0.4909E+01
   3.230  0.1194E+01  0.4921E+01
   3.240  0.1195E+01  0.4933E+01
   3.250  0.1201E+01  0.4945E+01
   3.260  0.1207E+01  0.4957E+01
   3.270  0.1213E+01  0.4969E+01
   3.280  0.1219E+01  0.4981E+01
   3.290  0.1228E+01  0.4993E+01
   3.300  0.1236E+01  0.5005E+01
   3.310  0.1245E+01  0.5018E+01
   3.320  0.1254E+01  0.5030E+01
   3.330  0.1264E+01  0.5043E+01
   3.340  0.1274E+01  0.5056E+01
   3.350  0.1284E+01  0.5068E+01
   3.360  0.1294E+01  0.5081E+01
   3.370  0.1304E+01  0.5094E+01
   3.380  0.1314E+01  0.5107E+01
   3.390  0.1325E+01  0.5120E+01
   3.400  0.1340E+01  0.5134E+01
   3.410  0.1356E+01  0.5147E+01
   3.420  0.1375E+01  0.5161E+01
   3.430  0.1394E+01  0.5175E+01
   3.440  0.1411E+01  0.5189E+01
   3.450  0.1427E+01  0.5203E+01
   3.460  0.1450E+01  0.5217E+01
   3.470  0.1482E+01  0.5232E+01
   3.480  0.1511E+01  0.5247E+01
   3.490  0.1536E+01  0.5262E+01
   3.500  0.1556E+01  0.5278E+01
   3.510  0.1553E+01  0.5293E+01
   3.520  0.1535E+01  0.5309E+01
   3.530  0.1535E+01  0.5324E+01
   3.540  0.1542E+01  0.5339E+01
   3.550  0.1548E+01  0.5355E+01
   3.560  0.1552E+01  0.5370E+01
   3.570  0.1554E+01  0.5386E+01
   3.580  0.1554E+01  0.5401E+01
   3.590  0.1545E+01  0.5417E+01
   3.600  0.1520E+01  0.5432E+01
   3.610  0.1503E+01  0.5447E+01
   3.620  0.1495E+01  0.5462E+01
   3.630  0.1493E+01  0.5477E+01
   3.640  0.1491E+01  0.5492E+01
   3.650  0.1489E+01  0.5507E+01
   3.660  0.1488E+01  0.5522E+01
   3.670  0.1488E+01  0.5537E+01
   3.680  0.1489E+01  0.5552E+01
   3.690  0.1490E+01  0.5567E+01
   3.700  0.1491E+01  0.5582E+01
   3.710  0.1494E+01  0.5597E+01
   3.720  0.1496E+01  0.5611E+01
   3.730  0.1499E+01  0.5626E+01
   3.740  0.1545E+01  0.5642E+01
   3.750  0.1550E+01  0.5657E+01
   3.760  0.1546E+01  0.5673E+01
   3.770  0.1543E+01  0.5688E+01
   3.780  0.1539E+01  0.5703E+01
   3.790  0.1535E+01  0.5719E+01
   3.800  0.1528E+01  0.5734E+01
   3.810  0.1522E+01  0.5749E+01
   3.820  0.1510E+01  0.5765E+01
   3.830  0.1501E+01  0.5780E+01
   3.840  0.1493E+01  0.5795E+01
   3.850  0.1485E+01  0.5809E+01
   3.860  0.1478E+01  0.5824E+01
   3.870  0.1472E+01  0.5839E+01
   3.880  0.1466E+01  0.5854E+01
   3.890  0.1460E+01  0.5868E+01
   3.900  0.1455E+01  0.5883E+01
   3.910  0.1450E+01  0.5897E+01
   3.920  0.1446E+01  0.5912E+01
   3.930  0.1442E+01  0.5926E+01
   3.940  0.1439E+01  0.5941E+01
   3.950  0.1428E+01  0.5955E+01
   3.960  0.1424E+01  0.5969E+01
   3.970  0.1426E+01  0.5984E+01
   3.980  0.1430E+01  0.5998E+01
   3.990  0.1436E+01  0.6012E+01
   4.000  0.1443E+01  0.6027E+01
   4.010  0.1452E+01  0.6041E+01
   4.020  0.1469E+01  0.6056E+01
   4.030  0.1459E+01  0.6070E+01
   4.040  0.1411E+01  0.6085E+01
   4.050  0.1407E+01  0.6099E+01
   4.060  0.1403E+01  0.6113E+01
   4.070  0.1398E+01  0.6127E+01
   4.080  0.1394E+01  0.6141E+01
   4.090  0.1389E+01  0.6155E+01
   4.100  0.1385E+01  0.6169E+01
   4.110  0.1381E+01  0.6182E+01
   4.120  0.1376E+01  0.6196E+01
   4.130  0.1372E+01  0.6210E+01
   4.140  0.1368E+01  0.6224E+01
   4.150  0.1364E+01  0.6237E+01
   4.160  0.1360E+01  0.6251E+01
   4.170  0.1357E+01  0.6265E+01
   4.180  0.1355E+01  0.6278E+01
   4.190  0.1355E+01  0.6292E+01
   4.200  0.1357E+01  0.6305E+01
   4.210  0.1360E+01  0.6319E+01
   4.220  0.1365E+01  0.6332E+01
   4.230  0.1381E+01  0.6346E+01
   4.240  0.1385E+01  0.6360E+01
   4.250  0.1373E+01  0.6374E+01
   4.260  0.1367E+01  0.6387E+01
   4.270  0.1361E+01  0.6401E+01
   4.280  0.1355E+01  0.6415E+01
   4.290  0.1351E+01  0.6428E+01
   4.300  0.1346E+01  0.6442E+01
   4.310  0.1342E+01  0.6455E+01
   4.320  0.1339E+01  0.6469E+01
   4.330  0.1336E+01  0.6482E+01
   4.340  0.1333E+01  0.6495E+01
   4.350  0.1331E+01  0.6509E+01
   4.360  0.1329E+01  0.6522E+01
   4.370  0.1327E+01  0.6535E+01
   4.380  0.1326E+01  0.6548E+01
   4.390  0.1325E+01  0.6562E+01
   4.400  0.1324E+01  0.6575E+01
   4.410  0.1321E+01  0.6588E+01
   4.420  0.1319E+01  0.6601E+01
   4.430  0.1317E+01  0.6614E+01
   4.440  0.1315E+01  0.6628E+01
   4.450  0.1313E+01  0.6641E+01
   4.460  0.1312E+01  0.6654E+01
   4.470  0.1310E+01  0.6667E+01
   4.480  0.1308E+01  0.6680E+01
   4.490  0.1307E+01  0.6693E+01
   4.500  0.1304E+01  0.6706E+01
   4.510  0.1300E+01  0.6719E+01
   4.520  0.1323E+01  0.6732E+01
   4.530  0.1348E+01  0.6746E+01
   4.540  0.1360E+01  0.6759E+01
   4.550  0.1361E+01  0.6773E+01
   4.560  0.1359E+01  0.6786E+01
   4.570  0.1354E+01  0.6800E+01
   4.580  0.1345E+01  0.6814E+01
   4.590  0.1332E+01  0.6827E+01
   4.600  0.1316E+01  0.6840E+01
   4.610  0.1297E+01  0.6853E+01
   4.620  0.1292E+01  0.6866E+01
   4.630  0.1288E+01  0.6879E+01
   4.640  0.1284E+01  0.6892E+01
   4.650  0.1281E+01  0.6905E+01
   4.660  0.1277E+01  0.6918E+01
   4.670  0.1274E+01  0.6930E+01
   4.680  0.1271E+01  0.6943E+01
   4.690  0.1268E+01  0.6956E+01
   4.700  0.1265E+01  0.6968E+01
   4.710  0.1262E+01  0.6981E+01
   4.720  0.1259E+01  0.6994E+01
   4.730  0.1257E+01  0.7006E+01
   4.740  0.1274E+01  0.7019E+01
   4.750  0.1292E+01  0.7032E+01
   4.760  0.1306E+01  0.7045E+01
   4.770  0.1314E+01  0.7058E+01
   4.780  0.1315E+01  0.7071E+01
   4.790  0.1309E+01  0.7084E+01
   4.800  0.1300E+01  0.7097E+01
   4.810  0.1292E+01  0.7110E+01
   4.820  0.1283E+01  0.7123E+01
   4.830  0.1274E+01  0.7136E+01
   4.840  0.1262E+01  0.7148E+01
   4.850  0.1250E+01  0.7161E+01
   4.860  0.1245E+01  0.7173E+01
   4.870  0.1240E+01  0.7186E+01
   4.880  0.1235E+01  0.7198E+01
   4.890  0.1229E+01  0.7211E+01
   4.900  0.1224E+01  0.7223E+01
   4.910  0.1218E+01  0.7235E+01
   4.920  0.1213E+01  0.7247E+01
   4.930  0.1207E+01  0.7259E+01
   4.940  0.1201E+01  0.7271E+01
   4.950  0.1194E+01  0.7283E+01
   4.960  0.1188E+01  0.7295E+01
   4.970  0.1181E+01  0.7307E+01
   4.980  0.1179E+01  0.7319E+01
   4.990  0.1183E+01  0.7331E+01
   5.000  0.1190E+01  0.7342E+01
   5.010  0.1196E+01  0.7354E+01
   5.020  0.1192E+01  0.7366E+01
   5.030  0.1187E+01  0.7378E+01
   5.040  0.1181E+01  0.7390E+01
   5.050  0.1173E+01  0.7402E+01
   5.060  0.1163E+01  0.7414E+01
   5.070  0.1153E+01  0.7425E+01
   5.080  0.1142E+01  0.7437E+01
   5.090  0.1134E+01  0.7448E+01
   5.100  0.1124E+01  0.7459E+01
   5.110  0.1114E+01  0.7470E+01
   5.120  0.1100E+01  0.7482E+01
   5.130  0.1079E+01  0.7492E+01
   5.140  0.1056E+01  0.7503E+01
   5.150  0.1032E+01  0.7514E+01
   5.160  0.1005E+01  0.7524E+01
   5.170  0.9770E+00  0.7534E+01
   5.180  0.9485E+00  0.7543E+01
   5.190  0.9196E+00  0.7553E+01
   5.200  0.8924E+00  0.7562E+01
   5.210  0.8680E+00  0.7570E+01
   5.220  0.8466E+00  0.7579E+01
   5.230  0.8281E+00  0.7587E+01
   5.240  0.8125E+00  0.7596E+01
   5.250  0.7981E+00  0.7604E+01
   5.260  0.7839E+00  0.7612E+01
   5.270  0.7700E+00  0.7619E+01
   5.280  0.7563E+00  0.7627E+01
   5.290  0.7431E+00  0.7634E+01
   5.300  0.7302E+00  0.7642E+01
   5.310  0.7176E+00  0.7649E+01
   5.320  0.7052E+00  0.7656E+01
   5.330  0.6932E+00  0.7663E+01
   5.340  0.6814E+00  0.7670E+01
   5.350  0.6699E+00  0.7677E+01
   5.360  0.6587E+00  0.7683E+01
   5.370  0.6478E+00  0.7690E+01
   5.380  0.6372E+00  0.7696E+01
   5.390  0.6259E+00  0.7703E+01
   5.400  0.6036E+00  0.7709E+01
   5.410  0.5963E+00  0.7715E+01
   5.420  0.5945E+00  0.7721E+01
   5.430  0.5928E+00  0.7727E+01
   5.440  0.5910E+00  0.7733E+01
   5.450  0.5890E+00  0.7739E+01
   5.460  0.5868E+00  0.7744E+01
   5.470  0.5843E+00  0.7750E+01
   5.480  0.5781E+00  0.7756E+01
   5.490  0.5701E+00  0.7762E+01
   5.500  0.5622E+00  0.7768E+01
   5.510  0.5543E+00  0.7773E+01
   5.520  0.5465E+00  0.7779E+01
   5.530  0.5528E+00  0.7784E+01
   5.540  0.5572E+00  0.7790E+01
   5.550  0.5556E+00  0.7795E+01
   5.560  0.5502E+00  0.7801E+01
   5.570  0.5388E+00  0.7806E+01
   5.580  0.5211E+00  0.7812E+01
   5.590  0.4971E+00  0.7817E+01
   5.600  0.4843E+00  0.7822E+01
   5.610  0.4767E+00  0.7826E+01
   5.620  0.4688E+00  0.7831E+01
   5.630  0.4607E+00  0.7836E+01
   5.640  0.4521E+00  0.7840E+01
   5.650  0.4431E+00  0.7845E+01
   5.660  0.4335E+00  0.7849E+01
   5.670  0.4234E+00  0.7853E+01
   5.680  0.4127E+00  0.7858E+01
   5.690  0.4016E+00  0.7862E+01
   5.700  0.3942E+00  0.7866E+01
   5.710  0.3864E+00  0.7870E+01
   5.720  0.3816E+00  0.7873E+01
   5.730  0.3763E+00  0.7877E+01
   5.740  0.3732E+00  0.7881E+01
   5.750  0.3708E+00  0.7885E+01
   5.760  0.3684E+00  0.7888E+01
   5.770  0.3660E+00  0.7892E+01
   5.780  0.3634E+00  0.7896E+01
   5.790  0.3609E+00  0.7899E+01
   5.800  0.3574E+00  0.7903E+01
   5.810  0.3517E+00  0.7906E+01
   5.820  0.3459E+00  0.7910E+01
   5.830  0.3400E+00  0.7913E+01
   5.840  0.3339E+00  0.7917E+01
   5.850  0.3278E+00  0.7920E+01
   5.860  0.3215E+00  0.7923E+01
   5.870  0.3151E+00  0.7926E+01
   5.880  0.3086E+00  0.7930E+01
   5.890  0.3020E+00  0.7933E+01
   5.900  0.2953E+00  0.7936E+01
   5.910  0.2885E+00  0.7939E+01
   5.920  0.2815E+00  0.7941E+01
   5.930  0.2745E+00  0.7944E+01
   5.940  0.2673E+00  0.7947E+01
   5.950  0.2600E+00  0.7949E+01
   5.960  0.2523E+00  0.7952E+01
   5.970  0.2439E+00  0.7955E+01
   5.980  0.2354E+00  0.7957E+01
   5.990  0.2268E+00  0.7959E+01
   6.000  0.2181E+00  0.7961E+01
   6.010  0.2094E+00  0.7964E+01
   6.020  0.2006E+00  0.7966E+01
   6.030  0.1918E+00  0.7968E+01
   6.040  0.1829E+00  0.7969E+01
   6.050  0.1768E+00  0.7971E+01
   6.060  0.1714E+00  0.7973E+01
   6.070  0.1660E+00  0.7975E+01
   6.080  0.1606E+00  0.7976E+01
   6.090  0.1552E+00  0.7978E+01
   6.100  0.1497E+00  0.7979E+01
   6.110  0.1442E+00  0.7981E+01
   6.120  0.1387E+00  0.7982E+01
   6.130  0.1332E+00  0.7984E+01
   6.140  0.1277E+00  0.7985E+01
   6.150  0.1221E+00  0.7986E+01
   6.160  0.1165E+00  0.7987E+01
   6.170  0.1109E+00  0.7989E+01
   6.180  0.1052E+00  0.7990E+01
   6.190  0.9955E-01  0.7991E+01
   6.200  0.9386E-01  0.7992E+01
   6.210  0.8814E-01  0.7993E+01
   6.220  0.8241E-01  0.7993E+01
   6.230  0.7664E-01  0.7994E+01
   6.240  0.7086E-01  0.7995E+01
   6.250  0.6505E-01  0.7996E+01
   6.260  0.1043E+00  0.7996E+01
   6.270  0.1005E+00  0.7998E+01
   6.280  0.4427E-01  0.7998E+01
   6.290  0.3703E-01  0.7999E+01
   6.300  0.3044E-01  0.7999E+01
   6.310  0.2449E-01  0.7999E+01
   6.320  0.1919E-01  0.8000E+01
   6.330  0.1453E-01  0.8000E+01
   6.340  0.1052E-01  0.8000E+01
   6.350  0.7159E-02  0.8000E+01
   6.360  0.4441E-02  0.8000E+01
   6.370  0.2369E-02  0.8000E+01
   6.380  0.9424E-03  0.8000E+01
   6.390  0.1620E-03  0.8000E+01
   6.400  0.0000E+00  0.8000E+01
   6.410  0.0000E+00  0.8000E+01
   6.420  0.0000E+00  0.8000E+01
   6.430  0.0000E+00  0.8000E+01
   6.440  0.0000E+00  0.8000E+01
   6.450  0.0000E+00  0.8000E+01
   6.460  0.0000E+00  0.8000E+01
   6.470  0.0000E+00  0.8000E+01
   6.480  0.0000E+00  0.8000E+01
   6.490  0.0000E+00  0.8000E+01
   6.500  0.0000E+00  0.8000E+01
   6.510  0.0000E+00  0.8000E+01
   6.520  0.0000E+00  0.8000E+01
   6.530  0.0000E+00  0.8000E+01
   6.540  0.0000E+00  0.8000E+01
   6.550  0.0000E+00  0.8000E+01
   6.560  0.0000E+00  0.8000E+01
   6.570  0.0000E+00  0.8000E+01
   6.580  0.0000E+00  0.8000E+01
   6.590  0.0000E+00  0.8000E+01
   6.600  0.0000E+00  0.8000E+01
   6.610  0.0000E+00  0.8000E+01
   6.620  0.0000E+00  0.8000E+01
   6.630  0.0000E+00  0.8000E+01
   6.640  0.0000E+00  0.8000E+01
   6.650  0.0000E+00  0.8000E+01
   6.660  0.0000E+00  0.8000E+01
   6.670  0.0000E+00  0.8000E+01
   6.680  0.0000E+00  0.8000E+01
   6.690  0.0000E+00  0.8000E+01
   6.700  0.0000E+00  0.8000E+01
   6.710  0.0000E+00  0.8000E+01
   6.720  0.0000E+00  0.8000E+01
   6.730  0.0000E+00  0.8000E+01
   6.740  0.0000E+00  0.8000E+01
   6.750  0.0000E+00  0.8000E+01
   6.760  0.0000E+00  0.8000E+01
   6.770  0.0000E+00  0.8000E+01
   6.780  0.0000E+00  0.8000E+01
   6.790  0.0000E+00  0.8000E+01
   6.800  0.0000E+00  0.8000E+01
   6.810  0.0000E+00  0.8000E+01
   6.820  0.0000E+00  0.8000E+01
   6.830  0.0000E+00  0.8000E+01
   6.840  0.0000E+00  0.8000E+01
   6.850  0.0000E+00  0.8000E+01
   6.860  0.0000E+00  0.8000E+01
   6.870  0.0000E+00  0.8000E+01
   6.880  0.0000E+00  0.8000E+01
   6.890  0.0000E+00  0.8000E+01
   6.900  0.0000E+00  0.8000E+01
   6.910  0.0000E+00  0.8000E+01
   6.920  0.0000E+00  0.8000E+01
   6.930  0.0000E+00  0.8000E+01
   6.940  0.0000E+00  0.8000E+01
   6.950  0.0000E+00  0.8000E+01
   6.960  0.0000E+00  0.8000E+01
   6.970  0.1092E-04  0.8000E+01
   6.980  0.3379E-03  0.8000E+01
   6.990  0.1120E-02  0.8000E+01
   7.000  0.2356E-02  0.8000E+01
   7.010  0.4047E-02  0.8000E+01
   7.020  0.6192E-02  0.8000E+01
   7.030  0.8792E-02  0.8000E+01
   7.040  0.1185E-01  0.8000E+01
   7.050  0.1536E-01  0.8000E+01
   7.060  0.1932E-01  0.8001E+01
   7.070  0.2374E-01  0.8001E+01
   7.080  0.2861E-01  0.8001E+01
   7.090  0.3394E-01  0.8001E+01
   7.100  0.3972E-01  0.8002E+01
   7.110  0.4634E-01  0.8002E+01
   7.120  0.5472E-01  0.8003E+01
   7.130  0.6492E-01  0.8003E+01
   7.140  0.7697E-01  0.8004E+01
   7.150  0.9089E-01  0.8005E+01
   7.160  0.1067E+00  0.8006E+01
   7.170  0.1210E+00  0.8007E+01
   7.180  0.1254E+00  0.8008E+01
   7.190  0.1302E+00  0.8009E+01
   7.200  0.1353E+00  0.8011E+01
   7.210  0.1408E+00  0.8012E+01
   7.220  0.1465E+00  0.8014E+01
   7.230  0.1526E+00  0.8015E+01
   7.240  0.1590E+00  0.8017E+01
   7.250  0.1658E+00  0.8018E+01
   7.260  0.1729E+00  0.8020E+01
   7.270  0.1803E+00  0.8022E+01
   7.280  0.1880E+00  0.8024E+01
   7.290  0.1960E+00  0.8026E+01
   7.300  0.2010E+00  0.8027E+01
   7.310  0.2062E+00  0.8030E+01
   7.320  0.2115E+00  0.8032E+01
   7.330  0.2170E+00  0.8034E+01
   7.340  0.2225E+00  0.8036E+01
   7.350  0.2281E+00  0.8038E+01
   7.360  0.2338E+00  0.8041E+01
   7.370  0.2395E+00  0.8043E+01
   7.380  0.2452E+00  0.8045E+01
   7.390  0.2510E+00  0.8048E+01
   7.400  0.2569E+00  0.8050E+01
   7.410  0.2628E+00  0.8053E+01
   7.420  0.2687E+00  0.8056E+01
   7.430  0.2747E+00  0.8058E+01
   7.440  0.2807E+00  0.8061E+01
   7.450  0.2868E+00  0.8064E+01
   7.460  0.2929E+00  0.8067E+01
   7.470  0.2991E+00  0.8070E+01
   7.480  0.3053E+00  0.8073E+01
   7.490  0.3114E+00  0.8076E+01
   7.500  0.3176E+00  0.8079E+01
   7.510  0.3238E+00  0.8082E+01
   7.520  0.3300E+00  0.8086E+01
   7.530  0.3361E+00  0.8089E+01
   7.540  0.3424E+00  0.8092E+01
   7.550  0.3492E+00  0.8096E+01
   7.560  0.3568E+00  0.8099E+01
   7.570  0.3652E+00  0.8103E+01
   7.580  0.3746E+00  0.8107E+01
   7.590  0.3854E+00  0.8110E+01
   7.600  0.3975E+00  0.8114E+01
   7.610  0.4108E+00  0.8118E+01
   7.620  0.4255E+00  0.8122E+01
   7.630  0.4346E+00  0.8127E+01
   7.640  0.4440E+00  0.8131E+01
   7.650  0.4537E+00  0.8136E+01
   7.660  0.4638E+00  0.8140E+01
   7.670  0.4745E+00  0.8145E+01
   7.680  0.4856E+00  0.8150E+01
   7.690  0.4973E+00  0.8155E+01
   7.700  0.5094E+00  0.8160E+01
   7.710  0.5220E+00  0.8165E+01
   7.720  0.5351E+00  0.8170E+01
   7.730  0.6674E+00  0.8176E+01
   7.740  0.5463E+00  0.8182E+01
   7.750  0.5139E+00  0.8188E+01
   7.760  0.5184E+00  0.8193E+01
   7.770  0.5227E+00  0.8198E+01
   7.780  0.5269E+00  0.8203E+01
   7.790  0.5311E+00  0.8208E+01
   7.800  0.5351E+00  0.8214E+01
   7.810  0.5401E+00  0.8219E+01
   7.820  0.5449E+00  0.8225E+01
   7.830  0.5496E+00  0.8230E+01
   7.840  0.5540E+00  0.8236E+01
   7.850  0.5584E+00  0.8241E+01
   7.860  0.5628E+00  0.8247E+01
   7.870  0.5673E+00  0.8252E+01
   7.880  0.5717E+00  0.8258E+01
   7.890  0.5762E+00  0.8264E+01
   7.900  0.5807E+00  0.8270E+01
   7.910  0.5853E+00  0.8275E+01
   7.920  0.5898E+00  0.8281E+01
   7.930  0.5943E+00  0.8287E+01
   7.940  0.5989E+00  0.8293E+01
   7.950  0.6036E+00  0.8299E+01
   7.960  0.6084E+00  0.8305E+01
   7.970  0.6133E+00  0.8311E+01
   7.980  0.6183E+00  0.8318E+01
   7.990  0.6233E+00  0.8324E+01
   8.000  0.6283E+00  0.8330E+01
   8.010  0.6333E+00  0.8336E+01
   8.020  0.6383E+00  0.8343E+01
   8.030  0.6434E+00  0.8349E+01
   8.040  0.6484E+00  0.8356E+01
   8.050  0.6535E+00  0.8362E+01
   8.060  0.6587E+00  0.8369E+01
   8.070  0.6641E+00  0.8375E+01
   8.080  0.6699E+00  0.8382E+01
   8.090  0.6758E+00  0.8389E+01
   8.100  0.6821E+00  0.8395E+01
   8.110  0.6885E+00  0.8402E+01
   8.120  0.6970E+00  0.8409E+01
   8.130  0.7287E+00  0.8416E+01
   8.140  0.7700E+00  0.8424E+01
   8.150  0.7729E+00  0.8432E+01
   8.160  0.7751E+00  0.8439E+01
   8.170  0.7768E+00  0.8447E+01
   8.180  0.7778E+00  0.8455E+01
   8.190  0.7781E+00  0.8463E+01
   8.200  0.7778E+00  0.8470E+01
   8.210  0.7834E+00  0.8478E+01
   8.220  0.7923E+00  0.8486E+01
   8.230  0.8013E+00  0.8494E+01
   8.240  0.8104E+00  0.8502E+01
   8.250  0.8195E+00  0.8510E+01
   8.260  0.8286E+00  0.8518E+01
   8.270  0.8364E+00  0.8527E+01
   8.280  0.8443E+00  0.8535E+01
   8.290  0.8527E+00  0.8544E+01
   8.300  0.8622E+00  0.8552E+01
   8.310  0.8721E+00  0.8561E+01
   8.320  0.8824E+00  0.8570E+01
   8.330  0.8931E+00  0.8579E+01
   8.340  0.9043E+00  0.8588E+01
   8.350  0.9159E+00  0.8597E+01
   8.360  0.9280E+00  0.8606E+01
   8.370  0.9404E+00  0.8615E+01
   8.380  0.9533E+00  0.8625E+01
   8.390  0.9670E+00  0.8634E+01
   8.400  0.9820E+00  0.8644E+01
   8.410  0.9982E+00  0.8654E+01
   8.420  0.1016E+01  0.8664E+01
   8.430  0.1034E+01  0.8674E+01
   8.440  0.1055E+01  0.8685E+01
   8.450  0.1079E+01  0.8695E+01
   8.460  0.1105E+01  0.8706E+01
   8.470  0.1135E+01  0.8717E+01
   8.480  0.1169E+01  0.8729E+01
   8.490  0.1206E+01  0.8741E+01
   8.500  0.1246E+01  0.8753E+01
   8.510  0.1291E+01  0.8766E+01
   8.520  0.1339E+01  0.8779E+01
   8.530  0.1391E+01  0.8793E+01
   8.540  0.1446E+01  0.8807E+01
   8.550  0.1595E+01  0.8822E+01
   8.560  0.1681E+01  0.8838E+01
   8.570  0.1657E+01  0.8855E+01
   8.580  0.1618E+01  0.8871E+01
   8.590  0.1621E+01  0.8888E+01
   8.600  0.1626E+01  0.8904E+01
   8.610  0.1634E+01  0.8920E+01
   8.620  0.1647E+01  0.8937E+01
   8.630  0.1664E+01  0.8953E+01
   8.640  0.1681E+01  0.8970E+01
   8.650  0.1697E+01  0.8987E+01
   8.660  0.1712E+01  0.9004E+01
   8.670  0.1726E+01  0.9021E+01
   8.680  0.1739E+01  0.9038E+01
   8.690  0.1751E+01  0.9056E+01
   8.700  0.1762E+01  0.9073E+01
   8.710  0.1788E+01  0.9091E+01
   8.720  0.1857E+01  0.9109E+01
   8.730  0.1963E+01  0.9128E+01
   8.740  0.2002E+01  0.9148E+01
   8.750  0.1999E+01  0.9168E+01
   8.760  0.1983E+01  0.9188E+01
   8.770  0.1994E+01  0.9208E+01
   8.780  0.2006E+01  0.9228E+01
   8.790  0.2017E+01  0.9248E+01
   8.800  0.2025E+01  0.9268E+01
   8.810  0.2030E+01  0.9288E+01
   8.820  0.2033E+01  0.9309E+01
   8.830  0.2035E+01  0.9329E+01
   8.840  0.2036E+01  0.9350E+01
   8.850  0.2034E+01  0.9370E+01
   8.860  0.2032E+01  0.9390E+01
   8.870  0.2027E+01  0.9410E+01
   8.880  0.2021E+01  0.9431E+01
   8.890  0.2014E+01  0.9451E+01
   8.900  0.2005E+01  0.9471E+01
   8.910  0.1995E+01  0.9491E+01
   8.920  0.1983E+01  0.9511E+01
   8.930  0.1970E+01  0.9531E+01
   8.940  0.1955E+01  0.9550E+01
   8.950  0.1939E+01  0.9570E+01
   8.960  0.1922E+01  0.9589E+01
   8.970  0.1905E+01  0.9608E+01
   8.980  0.1886E+01  0.9627E+01
   8.990  0.1866E+01  0.9646E+01
   9.000  0.1846E+01  0.9664E+01
   9.010  0.1826E+01  0.9683E+01
   9.020  0.1805E+01  0.9701E+01
   9.030  0.1784E+01  0.9719E+01
   9.040  0.1762E+01  0.9737E+01
   9.050  0.1739E+01  0.9754E+01
   9.060  0.1683E+01  0.9771E+01
   9.070  0.1590E+01  0.9788E+01
   9.080  0.1530E+01  0.9803E+01
   9.090  0.1493E+01  0.9818E+01
   9.100  0.1460E+01  0.9833E+01
   9.110  0.1430E+01  0.9848E+01
   9.120  0.1404E+01  0.9862E+01
   9.130  0.1378E+01  0.9876E+01
   9.140  0.1353E+01  0.9889E+01
   9.150  0.1328E+01  0.9903E+01
   9.160  0.1304E+01  0.9916E+01
   9.170  0.1280E+01  0.9929E+01
   9.180  0.1257E+01  0.9941E+01
   9.190  0.1234E+01  0.9954E+01
   9.200  0.1211E+01  0.9966E+01
   9.210  0.1182E+01  0.9978E+01
   9.220  0.1147E+01  0.9990E+01
   9.230  0.1114E+01  0.1000E+02
   9.240  0.1100E+01  0.1001E+02
   9.250  0.1086E+01  0.1002E+02
   9.260  0.1071E+01  0.1003E+02
   9.270  0.1055E+01  0.1004E+02
   9.280  0.1039E+01  0.1005E+02
   9.290  0.1023E+01  0.1007E+02
   9.300  0.1008E+01  0.1008E+02
   9.310  0.9929E+00  0.1009E+02
   9.320  0.9783E+00  0.1010E+02
   9.330  0.9641E+00  0.1011E+02
   9.340  0.9504E+00  0.1011E+02
   9.350  0.9370E+00  0.1012E+02
   9.360  0.9241E+00  0.1013E+02
   9.370  0.9116E+00  0.1014E+02
   9.380  0.8995E+00  0.1015E+02
   9.390  0.8878E+00  0.1016E+02
   9.400  0.8763E+00  0.1017E+02
   9.410  0.8651E+00  0.1018E+02
   9.420  0.8546E+00  0.1019E+02
   9.430  0.8458E+00  0.1020E+02
   9.440  0.8385E+00  0.1020E+02
   9.450  0.8298E+00  0.1021E+02
   9.460  0.8219E+00  0.1022E+02
   9.470  0.8149E+00  0.1023E+02
   9.480  0.8087E+00  0.1024E+02
   9.490  0.8033E+00  0.1024E+02
   9.500  0.7988E+00  0.1025E+02
   9.510  0.7949E+00  0.1026E+02
   9.520  0.7977E+00  0.1027E+02
   9.530  0.8060E+00  0.1028E+02
   9.540  0.8163E+00  0.1028E+02
   9.550  0.8287E+00  0.1029E+02
   9.560  0.8431E+00  0.1030E+02
   9.570  0.8594E+00  0.1031E+02
   9.580  0.8788E+00  0.1032E+02
   9.590  0.9020E+00  0.1033E+02
   9.600  0.9452E+00  0.1034E+02
   9.610  0.9885E+00  0.1035E+02
   9.620  0.1033E+01  0.1036E+02
   9.630  0.1077E+01  0.1037E+02
   9.640  0.1120E+01  0.1038E+02
   9.650  0.1170E+01  0.1039E+02
   9.660  0.1223E+01  0.1040E+02
   9.670  0.1281E+01  0.1041E+02
   9.680  0.1446E+01  0.1043E+02
   9.690  0.1471E+01  0.1044E+02
   9.700  0.1476E+01  0.1046E+02
   9.710  0.1520E+01  0.1047E+02
   9.720  0.1562E+01  0.1049E+02
   9.730  0.1602E+01  0.1050E+02
   9.740  0.1626E+01  0.1052E+02
   9.750  0.1650E+01  0.1054E+02
   9.760  0.1674E+01  0.1055E+02
   9.770  0.1693E+01  0.1057E+02
   9.780  0.1705E+01  0.1059E+02
   9.790  0.1690E+01  0.1060E+02
   9.800  0.1660E+01  0.1062E+02
   9.810  0.1688E+01  0.1064E+02
   9.820  0.1715E+01  0.1065E+02
   9.830  0.1746E+01  0.1067E+02
   9.840  0.1775E+01  0.1069E+02
   9.850  0.1807E+01  0.1071E+02
   9.860  0.1843E+01  0.1072E+02
   9.870  0.1882E+01  0.1074E+02
   9.880  0.1924E+01  0.1076E+02
   9.890  0.1972E+01  0.1078E+02
   9.900  0.2032E+01  0.1080E+02
   9.910  0.2093E+01  0.1082E+02
   9.920  0.2151E+01  0.1084E+02
   9.930  0.2146E+01  0.1086E+02
   9.940  0.2125E+01  0.1089E+02
   9.950  0.2105E+01  0.1091E+02
   9.960  0.2084E+01  0.1093E+02
   9.970  0.2097E+01  0.1095E+02
   9.980  0.2103E+01  0.1097E+02
   9.990  0.2098E+01  0.1099E+02
  10.000  0.2061E+01  0.1101E+02
  10.010  0.2025E+01  0.1103E+02
  10.020  0.2000E+01  0.1105E+02
  10.030  0.1983E+01  0.1107E+02
  10.040  0.1974E+01  0.1109E+02
  10.050  0.1969E+01  0.1111E+02
  10.060  0.1961E+01  0.1113E+02
  10.070  0.1949E+01  0.1115E+02
  10.080  0.1935E+01  0.1117E+02
  10.090  0.1918E+01  0.1119E+02
  10.100  0.1899E+01  0.1121E+02
  10.110  0.1890E+01  0.1123E+02
  10.120  0.1880E+01  0.1125E+02
  10.130  0.1869E+01  0.1127E+02
  10.140  0.1859E+01  0.1128E+02
  10.150  0.1849E+01  0.1130E+02
  10.160  0.1839E+01  0.1132E+02
  10.170  0.1830E+01  0.1134E+02
  10.180  0.1816E+01  0.1136E+02
  10.190  0.1806E+01  0.1138E+02
  10.200  0.1780E+01  0.1139E+02
  10.210  0.1770E+01  0.1141E+02
  10.220  0.1760E+01  0.1143E+02
  10.230  0.1750E+01  0.1145E+02
  10.240  0.1740E+01  0.1146E+02
  10.250  0.1729E+01  0.1148E+02
  10.260  0.1719E+01  0.1150E+02
  10.270  0.1709E+01  0.1152E+02
  10.280  0.1698E+01  0.1153E+02
  10.290  0.1688E+01  0.1155E+02
  10.300  0.1677E+01  0.1157E+02
  10.310  0.1667E+01  0.1158E+02
  10.320  0.1657E+01  0.1160E+02
  10.330  0.1647E+01  0.1162E+02
  10.340  0.1636E+01  0.1163E+02
  10.350  0.1626E+01  0.1165E+02
  10.360  0.1616E+01  0.1167E+02
  10.370  0.1605E+01  0.1168E+02
  10.380  0.1592E+01  0.1170E+02
  10.390  0.1577E+01  0.1171E+02
  10.400  0.1562E+01  0.1173E+02
  10.410  0.1547E+01  0.1174E+02
  10.420  0.1532E+01  0.1176E+02
  10.430  0.1517E+01  0.1178E+02
  10.440  0.1502E+01  0.1179E+02
  10.450  0.1487E+01  0.1181E+02
  10.460  0.1473E+01  0.1182E+02
  10.470  0.1458E+01  0.1183E+02
  10.480  0.1444E+01  0.1185E+02
  10.490  0.1429E+01  0.1186E+02
  10.500  0.1410E+01  0.1188E+02
  10.510  0.1383E+01  0.1189E+02
  10.520  0.1370E+01  0.1191E+02
  10.530  0.1358E+01  0.1192E+02
  10.540  0.1347E+01  0.1193E+02
  10.550  0.1337E+01  0.1195E+02
  10.560  0.1328E+01  0.1196E+02
  10.570  0.1320E+01  0.1197E+02
  10.580  0.1313E+01  0.1199E+02
  10.590  0.1306E+01  0.1200E+02
  10.600  0.1300E+01  0.1201E+02
  10.610  0.1293E+01  0.1202E+02
  10.620  0.1288E+01  0.1204E+02
  10.630  0.1286E+01  0.1205E+02
  10.640  0.1285E+01  0.1206E+02
  10.650  0.1282E+01  0.1208E+02
  10.660  0.1626E+01  0.1209E+02
  10.670  0.1285E+01  0.1210E+02
  10.680  0.1279E+01  0.1212E+02
  10.690  0.1249E+01  0.1213E+02
  10.700  0.1196E+01  0.1214E+02
  10.710  0.1210E+01  0.1215E+02
  10.720  0.1206E+01  0.1217E+02
  10.730  0.1190E+01  0.1218E+02
  10.740  0.1175E+01  0.1219E+02
  10.750  0.1162E+01  0.1220E+02
  10.760  0.1150E+01  0.1221E+02
  10.770  0.1138E+01  0.1222E+02
  10.780  0.1128E+01  0.1224E+02
  10.790  0.1119E+01  0.1225E+02
  10.800  0.1111E+01  0.1226E+02
  10.810  0.1104E+01  0.1227E+02
  10.820  0.1098E+01  0.1228E+02
  10.830  0.1093E+01  0.1229E+02
  10.840  0.1090E+01  0.1230E+02
  10.850  0.1089E+01  0.1231E+02
  10.860  0.1089E+01  0.1232E+02
  10.870  0.1090E+01  0.1233E+02
  10.880  0.1093E+01  0.1235E+02
  10.890  0.1097E+01  0.1236E+02
  10.900  0.1102E+01  0.1237E+02
  10.910  0.1111E+01  0.1238E+02
  10.920  0.1122E+01  0.1239E+02
  10.930  0.1129E+01  0.1240E+02
  10.940  0.1124E+01  0.1241E+02
  10.950  0.1122E+01  0.1242E+02
  10.960  0.1124E+01  0.1243E+02
  10.970  0.1138E+01  0.1245E+02
  10.980  0.1170E+01  0.1246E+02
  10.990  0.1212E+01  0.1247E+02
  11.000  0.1263E+01  0.1248E+02
  11.010  0.1297E+01  0.1249E+02
  11.020  0.1322E+01  0.1251E+02
  11.030  0.1324E+01  0.1252E+02
  11.040  0.1296E+01  0.1253E+02
  11.050  0.1259E+01  0.1255E+02
  11.060  0.1225E+01  0.1256E+02
  11.070  0.1194E+01  0.1257E+02
  11.080  0.1167E+01  0.1258E+02
  11.090  0.1143E+01  0.1259E+02
  11.100  0.1121E+01  0.1261E+02
  11.110  0.1104E+01  0.1262E+02
  11.120  0.1089E+01  0.1263E+02
  11.130  0.1076E+01  0.1264E+02
  11.140  0.1062E+01  0.1265E+02
  11.150  0.1048E+01  0.1266E+02
  11.160  0.1035E+01  0.1267E+02
  11.170  0.1022E+01  0.1268E+02
  11.180  0.1008E+01  0.1269E+02
  11.190  0.9952E+00  0.1270E+02
  11.200  0.9823E+00  0.1271E+02
  11.210  0.9694E+00  0.1272E+02
  11.220  0.9596E+00  0.1273E+02
  11.230  0.9506E+00  0.1274E+02
  11.240  0.9424E+00  0.1275E+02
  11.250  0.9350E+00  0.1276E+02
  11.260  0.9284E+00  0.1277E+02
  11.270  0.9208E+00  0.1278E+02
  11.280  0.9136E+00  0.1279E+02
  11.290  0.9093E+00  0.1280E+02
  11.300  0.9067E+00  0.1280E+02
  11.310  0.9059E+00  0.1281E+02
  11.320  0.9099E+00  0.1282E+02
  11.330  0.9465E+00  0.1283E+02
  11.340  0.1005E+01  0.1284E+02
  11.350  0.1085E+01  0.1285E+02
  11.360  0.1130E+01  0.1286E+02
  11.370  0.1141E+01  0.1288E+02
  11.380  0.1150E+01  0.1289E+02
  11.390  0.1156E+01  0.1290E+02
  11.400  0.1159E+01  0.1291E+02
  11.410  0.1159E+01  0.1292E+02
  11.420  0.1175E+01  0.1293E+02
  11.430  0.1206E+01  0.1294E+02
  11.440  0.1193E+01  0.1296E+02
  11.450  0.1137E+01  0.1297E+02
  11.460  0.1119E+01  0.1298E+02
  11.470  0.1134E+01  0.1299E+02
  11.480  0.1153E+01  0.1300E+02
  11.490  0.1174E+01  0.1301E+02
  11.500  0.1192E+01  0.1303E+02
  11.510  0.1206E+01  0.1304E+02
  11.520  0.1216E+01  0.1305E+02
  11.530  0.1223E+01  0.1306E+02
  11.540  0.1227E+01  0.1307E+02
  11.550  0.1227E+01  0.1309E+02
  11.560  0.1224E+01  0.1310E+02
  11.570  0.1218E+01  0.1311E+02
  11.580  0.1208E+01  0.1312E+02
  11.590  0.1204E+01  0.1314E+02
  11.600  0.1201E+01  0.1315E+02
  11.610  0.1199E+01  0.1316E+02
  11.620  0.1197E+01  0.1317E+02
  11.630  0.1195E+01  0.1318E+02
  11.640  0.1193E+01  0.1320E+02
  11.650  0.1191E+01  0.1321E+02
  11.660  0.1189E+01  0.1322E+02
  11.670  0.1188E+01  0.1323E+02
  11.680  0.1186E+01  0.1324E+02
  11.690  0.1185E+01  0.1325E+02
  11.700  0.1184E+01  0.1327E+02
  11.710  0.1183E+01  0.1328E+02
  11.720  0.1182E+01  0.1329E+02
  11.730  0.1182E+01  0.1330E+02
  11.740  0.1181E+01  0.1331E+02
  11.750  0.1180E+01  0.1333E+02
  11.760  0.1178E+01  0.1334E+02
  11.770  0.1176E+01  0.1335E+02
  11.780  0.1174E+01  0.1336E+02
  11.790  0.1171E+01  0.1337E+02
  11.800  0.1170E+01  0.1338E+02
  11.810  0.1168E+01  0.1340E+02
  11.820  0.1166E+01  0.1341E+02
  11.830  0.1165E+01  0.1342E+02
  11.840  0.1164E+01  0.1343E+02
  11.850  0.1163E+01  0.1344E+02
  11.860  0.1162E+01  0.1345E+02
  11.870  0.1161E+01  0.1347E+02
  11.880  0.1161E+01  0.1348E+02
  11.890  0.1161E+01  0.1349E+02
  11.900  0.1161E+01  0.1350E+02
  11.910  0.1164E+01  0.1351E+02
  11.920  0.1166E+01  0.1352E+02
  11.930  0.1167E+01  0.1354E+02
  11.940  0.1167E+01  0.1355E+02
  11.950  0.1166E+01  0.1356E+02
  11.960  0.1164E+01  0.1357E+02
  11.970  0.1164E+01  0.1358E+02
  11.980  0.1165E+01  0.1359E+02
  11.990  0.1166E+01  0.1361E+02
  12.000  0.1167E+01  0.1362E+02
  12.010  0.1169E+01  0.1363E+02
  12.020  0.1170E+01  0.1364E+02
  12.030  0.1172E+01  0.1365E+02
  12.040  0.1174E+01  0.1366E+02
  12.050  0.1175E+01  0.1368E+02
  12.060  0.1177E+01  0.1369E+02
  12.070  0.1179E+01  0.1370E+02
  12.080  0.1180E+01  0.1371E+02
  12.090  0.1181E+01  0.1372E+02
  12.100  0.1182E+01  0.1373E+02
  12.110  0.1183E+01  0.1375E+02
  12.120  0.1184E+01  0.1376E+02
  12.130  0.1184E+01  0.1377E+02
  12.140  0.1184E+01  0.1378E+02
  12.150  0.1183E+01  0.1379E+02
  12.160  0.1182E+01  0.1381E+02
  12.170  0.1181E+01  0.1382E+02
  12.180  0.1180E+01  0.1383E+02
  12.190  0.1178E+01  0.1384E+02
  12.200  0.1177E+01  0.1385E+02
  12.210  0.1175E+01  0.1386E+02
  12.220  0.1171E+01  0.1388E+02
  12.230  0.1167E+01  0.1389E+02
  12.240  0.1163E+01  0.1390E+02
  12.250  0.1157E+01  0.1391E+02
  12.260  0.1150E+01  0.1392E+02
  12.270  0.1140E+01  0.1393E+02
  12.280  0.1129E+01  0.1395E+02
  12.290  0.1118E+01  0.1396E+02
  12.300  0.1106E+01  0.1397E+02
  12.310  0.1092E+01  0.1398E+02
  12.320  0.1078E+01  0.1399E+02
  12.330  0.1062E+01  0.1400E+02
  12.340  0.1045E+01  0.1401E+02
  12.350  0.1029E+01  0.1402E+02
  12.360  0.1018E+01  0.1403E+02
  12.370  0.1008E+01  0.1404E+02
  12.380  0.9995E+00  0.1405E+02
  12.390  0.9925E+00  0.1406E+02
  12.400  0.9869E+00  0.1407E+02
  12.410  0.9826E+00  0.1408E+02
  12.420  0.9789E+00  0.1409E+02
  12.430  0.9758E+00  0.1410E+02
  12.440  0.9733E+00  0.1411E+02
  12.450  0.9714E+00  0.1412E+02
  12.460  0.9701E+00  0.1413E+02
  12.470  0.9515E+00  0.1414E+02
  12.480  0.9441E+00  0.1415E+02
  12.490  0.9331E+00  0.1416E+02
  12.500  0.9224E+00  0.1417E+02
  12.510  0.9117E+00  0.1418E+02
  12.520  0.9022E+00  0.1419E+02
  12.530  0.9511E+00  0.1420E+02
  12.540  0.8701E+00  0.1420E+02
  12.550  0.8672E+00  0.1421E+02
  12.560  0.8646E+00  0.1422E+02
  12.570  0.8621E+00  0.1423E+02
  12.580  0.8599E+00  0.1424E+02
  12.590  0.8579E+00  0.1425E+02
  12.600  0.8560E+00  0.1426E+02
  12.610  0.8544E+00  0.1427E+02
  12.620  0.8530E+00  0.1427E+02
  12.630  0.8515E+00  0.1428E+02
  12.640  0.8489E+00  0.1429E+02
  12.650  0.8475E+00  0.1430E+02
  12.660  0.8470E+00  0.1431E+02
  12.670  0.8474E+00  0.1432E+02
  12.680  0.8483E+00  0.1432E+02
  12.690  0.8497E+00  0.1433E+02
  12.700  0.8520E+00  0.1434E+02
  12.710  0.8551E+00  0.1435E+02
  12.720  0.8614E+00  0.1436E+02
  12.730  0.8704E+00  0.1437E+02
  12.740  0.8808E+00  0.1438E+02
  12.750  0.8919E+00  0.1439E+02
  12.760  0.9025E+00  0.1439E+02
  12.770  0.9129E+00  0.1440E+02
  12.780  0.9232E+00  0.1441E+02
  12.790  0.9333E+00  0.1442E+02
  12.800  0.9434E+00  0.1443E+02
  12.810  0.9533E+00  0.1444E+02
  12.820  0.9630E+00  0.1445E+02
  12.830  0.9726E+00  0.1446E+02
  12.840  0.9821E+00  0.1447E+02
  12.850  0.9914E+00  0.1448E+02
  12.860  0.1001E+01  0.1449E+02
  12.870  0.1010E+01  0.1450E+02
  12.880  0.1019E+01  0.1451E+02
  12.890  0.1028E+01  0.1452E+02
  12.900  0.1036E+01  0.1453E+02
  12.910  0.1045E+01  0.1454E+02
  12.920  0.1054E+01  0.1455E+02
  12.930  0.1063E+01  0.1456E+02
  12.940  0.1071E+01  0.1457E+02
  12.950  0.1080E+01  0.1458E+02
  12.960  0.1089E+01  0.1459E+02
  12.970  0.1094E+01  0.1460E+02
  12.980  0.1093E+01  0.1462E+02
  12.990  0.1095E+01  0.1463E+02
  13.000  0.1098E+01  0.1464E+02
  13.010  0.1102E+01  0.1465E+02
  13.020  0.1106E+01  0.1466E+02
  13.030  0.1110E+01  0.1467E+02
  13.040  0.1112E+01  0.1468E+02
  13.050  0.1115E+01  0.1469E+02
  13.060  0.1117E+01  0.1470E+02
  13.070  0.1119E+01  0.1472E+02
  13.080  0.1120E+01  0.1473E+02
  13.090  0.1120E+01  0.1474E+02
  13.100  0.1121E+01  0.1475E+02
  13.110  0.1121E+01  0.1476E+02
  13.120  0.1118E+01  0.1477E+02
  13.130  0.1115E+01  0.1478E+02
  13.140  0.1112E+01  0.1479E+02
  13.150  0.1109E+01  0.1480E+02
  13.160  0.1107E+01  0.1482E+02
  13.170  0.1106E+01  0.1483E+02
  13.180  0.1106E+01  0.1484E+02
  13.190  0.1106E+01  0.1485E+02
  13.200  0.1106E+01  0.1486E+02
  13.210  0.1108E+01  0.1487E+02
  13.220  0.1107E+01  0.1488E+02
  13.230  0.1103E+01  0.1489E+02
  13.240  0.1100E+01  0.1490E+02
  13.250  0.1098E+01  0.1492E+02
  13.260  0.1096E+01  0.1493E+02
  13.270  0.1094E+01  0.1494E+02
  13.280  0.1092E+01  0.1495E+02
  13.290  0.1091E+01  0.1496E+02
  13.300  0.1087E+01  0.1497E+02
  13.310  0.1082E+01  0.1498E+02
  13.320  0.1078E+01  0.1499E+02
  13.330  0.1073E+01  0.1500E+02
  13.340  0.1068E+01  0.1501E+02
  13.350  0.1063E+01  0.1502E+02
  13.360  0.1057E+01  0.1503E+02
  13.370  0.1052E+01  0.1504E+02
  13.380  0.1046E+01  0.1506E+02
  13.390  0.1041E+01  0.1507E+02
  13.400  0.1035E+01  0.1508E+02
  13.410  0.1029E+01  0.1509E+02
  13.420  0.1023E+01  0.1510E+02
  13.430  0.1016E+01  0.1511E+02
  13.440  0.1010E+01  0.1512E+02
  13.450  0.1003E+01  0.1513E+02
  13.460  0.9966E+00  0.1514E+02
  13.470  0.9897E+00  0.1515E+02
  13.480  0.9824E+00  0.1516E+02
  13.490  0.9749E+00  0.1517E+02
  13.500  0.9672E+00  0.1518E+02
  13.510  0.9593E+00  0.1519E+02
  13.520  0.9513E+00  0.1520E+02
  13.530  0.9430E+00  0.1521E+02
  13.540  0.9339E+00  0.1521E+02
  13.550  0.9248E+00  0.1522E+02
  13.560  0.9156E+00  0.1523E+02
  13.570  0.9062E+00  0.1524E+02
  13.580  0.8968E+00  0.1525E+02
  13.590  0.8873E+00  0.1526E+02
  13.600  0.8776E+00  0.1527E+02
  13.610  0.8676E+00  0.1528E+02
  13.620  0.8575E+00  0.1529E+02
  13.630  0.8473E+00  0.1529E+02
  13.640  0.8371E+00  0.1530E+02
  13.650  0.8269E+00  0.1531E+02
  13.660  0.8165E+00  0.1532E+02
  13.670  0.8062E+00  0.1533E+02
  13.680  0.7957E+00  0.1534E+02
  13.690  0.7850E+00  0.1534E+02
  13.700  0.7746E+00  0.1535E+02
  13.710  0.7647E+00  0.1536E+02
  13.720  0.7554E+00  0.1537E+02
  13.730  0.7466E+00  0.1537E+02
  13.740  0.7384E+00  0.1538E+02
  13.750  0.7307E+00  0.1539E+02
  13.760  0.7234E+00  0.1540E+02
  13.770  0.7164E+00  0.1540E+02
  13.780  0.7096E+00  0.1541E+02
  13.790  0.7031E+00  0.1542E+02
  13.800  0.6969E+00  0.1542E+02
  13.810  0.6910E+00  0.1543E+02
  13.820  0.6853E+00  0.1544E+02
  13.830  0.6782E+00  0.1545E+02
  13.840  0.6714E+00  0.1545E+02
  13.850  0.6649E+00  0.1546E+02
  13.860  0.6588E+00  0.1547E+02
  13.870  0.6530E+00  0.1547E+02
  13.880  0.6476E+00  0.1548E+02
  13.890  0.6425E+00  0.1548E+02
  13.900  0.6378E+00  0.1549E+02
  13.910  0.6333E+00  0.1550E+02
  13.920  0.6291E+00  0.1550E+02
  13.930  0.6256E+00  0.1551E+02
  13.940  0.6223E+00  0.1552E+02
  13.950  0.6189E+00  0.1552E+02
  13.960  0.6156E+00  0.1553E+02
  13.970  0.6101E+00  0.1553E+02
  13.980  0.6043E+00  0.1554E+02
  13.990  0.5995E+00  0.1555E+02
  14.000  0.5966E+00  0.1555E+02
  14.010  0.5910E+00  0.1556E+02
  14.020  0.5815E+00  0.1556E+02
  14.030  0.5691E+00  0.1557E+02
  14.040  0.5537E+00  0.1558E+02
  14.050  0.5353E+00  0.1558E+02
  14.060  0.5140E+00  0.1559E+02
  14.070  0.5036E+00  0.1559E+02
  14.080  0.4949E+00  0.1560E+02
  14.090  0.4896E+00  0.1560E+02
  14.100  0.4850E+00  0.1561E+02
  14.110  0.4814E+00  0.1561E+02
  14.120  0.4781E+00  0.1562E+02
  14.130  0.4748E+00  0.1562E+02
  14.140  0.4716E+00  0.1563E+02
  14.150  0.4684E+00  0.1563E+02
  14.160  0.4652E+00  0.1564E+02
  14.170  0.4620E+00  0.1564E+02
  14.180  0.4590E+00  0.1564E+02
  14.190  0.4564E+00  0.1565E+02
  14.200  0.4541E+00  0.1565E+02
  14.210  0.4523E+00  0.1566E+02
  14.220  0.4509E+00  0.1566E+02
  14.230  0.4499E+00  0.1567E+02
  14.240  0.4493E+00  0.1567E+02
  14.250  0.4490E+00  0.1568E+02
  14.260  0.4492E+00  0.1568E+02
  14.270  0.4495E+00  0.1569E+02
  14.280  0.4501E+00  0.1569E+02
  14.290  0.4508E+00  0.1569E+02
  14.300  0.4517E+00  0.1570E+02
  14.310  0.4527E+00  0.1570E+02
  14.320  0.4539E+00  0.1571E+02
  14.330  0.4553E+00  0.1571E+02
  14.340  0.4569E+00  0.1572E+02
  14.350  0.4586E+00  0.1572E+02
  14.360  0.4597E+00  0.1573E+02
  14.370  0.4596E+00  0.1573E+02
  14.380  0.4595E+00  0.1574E+02
  14.390  0.4681E+00  0.1574E+02
  14.400  0.4736E+00  0.1574E+02
  14.410  0.4760E+00  0.1575E+02
  14.420  0.4752E+00  0.1575E+02
  14.430  0.4714E+00  0.1576E+02
  14.440  0.4644E+00  0.1576E+02
  14.450  0.4544E+00  0.1577E+02
  14.460  0.4377E+00  0.1577E+02
  14.470  0.4068E+00  0.1578E+02
  14.480  0.3612E+00  0.1578E+02
  14.490  0.3081E+00  0.1578E+02
  14.500  0.2920E+00  0.1579E+02
  14.510  0.2775E+00  0.1579E+02
  14.520  0.2644E+00  0.1579E+02
  14.530  0.2528E+00  0.1580E+02
  14.540  0.2427E+00  0.1580E+02
  14.550  0.2341E+00  0.1580E+02
  14.560  0.2300E+00  0.1580E+02
  14.570  0.2284E+00  0.1580E+02
  14.580  0.2268E+00  0.1581E+02
  14.590  0.2251E+00  0.1581E+02
  14.600  0.2235E+00  0.1581E+02
  14.610  0.2219E+00  0.1581E+02
  14.620  0.2203E+00  0.1582E+02
  14.630  0.2187E+00  0.1582E+02
  14.640  0.2171E+00  0.1582E+02
  14.650  0.2156E+00  0.1582E+02
  14.660  0.2140E+00  0.1582E+02
  14.670  0.2124E+00  0.1583E+02
  14.680  0.2109E+00  0.1583E+02
  14.690  0.2094E+00  0.1583E+02
  14.700  0.2078E+00  0.1583E+02
  14.710  0.2063E+00  0.1583E+02
  14.720  0.2048E+00  0.1584E+02
  14.730  0.2033E+00  0.1584E+02
  14.740  0.2018E+00  0.1584E+02
  14.750  0.2003E+00  0.1584E+02
  14.760  0.1988E+00  0.1585E+02
  14.770  0.1974E+00  0.1585E+02
  14.780  0.1959E+00  0.1585E+02
  14.790  0.1944E+00  0.1585E+02
  14.800  0.1930E+00  0.1585E+02
  14.810  0.1916E+00  0.1585E+02
  14.820  0.1902E+00  0.1586E+02
  14.830  0.1888E+00  0.1586E+02
  14.840  0.1874E+00  0.1586E+02
  14.850  0.1860E+00  0.1586E+02
  14.860  0.1847E+00  0.1586E+02
  14.870  0.1834E+00  0.1587E+02
  14.880  0.1821E+00  0.1587E+02
  14.890  0.1808E+00  0.1587E+02
  14.900  0.1796E+00  0.1587E+02
  14.910  0.1784E+00  0.1587E+02
  14.920  0.1772E+00  0.1588E+02
  14.930  0.1760E+00  0.1588E+02
  14.940  0.1748E+00  0.1588E+02
  14.950  0.1737E+00  0.1588E+02
  14.960  0.1726E+00  0.1588E+02
  14.970  0.1715E+00  0.1588E+02
  14.980  0.1704E+00  0.1589E+02
  14.990  0.1693E+00  0.1589E+02
  15.000  0.1683E+00  0.1589E+02
  15.010  0.1673E+00  0.1589E+02
  15.020  0.1663E+00  0.1589E+02
  15.030  0.1653E+00  0.1589E+02
  15.040  0.1643E+00  0.1590E+02
  15.050  0.1634E+00  0.1590E+02
  15.060  0.1625E+00  0.1590E+02
  15.070  0.1616E+00  0.1590E+02
  15.080  0.1608E+00  0.1590E+02
  15.090  0.1599E+00  0.1590E+02
  15.100  0.1591E+00  0.1591E+02
  15.110  0.1583E+00  0.1591E+02
  15.120  0.1582E+00  0.1591E+02
  15.130  0.1580E+00  0.1591E+02
  15.140  0.1579E+00  0.1591E+02
  15.150  0.1578E+00  0.1591E+02
  15.160  0.1576E+00  0.1591E+02
  15.170  0.1575E+00  0.1592E+02
  15.180  0.1573E+00  0.1592E+02
  15.190  0.1571E+00  0.1592E+02
  15.200  0.1570E+00  0.1592E+02
  15.210  0.1568E+00  0.1592E+02
  15.220  0.1566E+00  0.1592E+02
  15.230  0.1564E+00  0.1593E+02
  15.240  0.1562E+00  0.1593E+02
  15.250  0.1561E+00  0.1593E+02
  15.260  0.1559E+00  0.1593E+02
  15.270  0.1556E+00  0.1593E+02
  15.280  0.1554E+00  0.1593E+02
  15.290  0.1552E+00  0.1594E+02
  15.300  0.1550E+00  0.1594E+02
  15.310  0.1548E+00  0.1594E+02
  15.320  0.1545E+00  0.1594E+02
  15.330  0.1538E+00  0.1594E+02
  15.340  0.1533E+00  0.1594E+02
  15.350  0.1531E+00  0.1594E+02
  15.360  0.1531E+00  0.1595E+02
  15.370  0.1535E+00  0.1595E+02
  15.380  0.1542E+00  0.1595E+02
  15.390  0.1552E+00  0.1595E+02
  15.400  0.1565E+00  0.1595E+02
  15.410  0.1580E+00  0.1595E+02
  15.420  0.1615E+00  0.1596E+02
  15.430  0.1659E+00  0.1596E+02
  15.440  0.1692E+00  0.1596E+02
  15.450  0.1712E+00  0.1596E+02
  15.460  0.1721E+00  0.1596E+02
  15.470  0.1717E+00  0.1596E+02
  15.480  0.1702E+00  0.1597E+02
  15.490  0.1674E+00  0.1597E+02
  15.500  0.1635E+00  0.1597E+02
  15.510  0.1583E+00  0.1597E+02
  15.520  0.1520E+00  0.1597E+02
  15.530  0.1445E+00  0.1597E+02
  15.540  0.1357E+00  0.1597E+02
  15.550  0.1258E+00  0.1598E+02
  15.560  0.1147E+00  0.1598E+02
  15.570  0.1037E+00  0.1598E+02
  15.580  0.1002E+00  0.1598E+02
  15.590  0.9646E-01  0.1598E+02
  15.600  0.9255E-01  0.1598E+02
  15.610  0.8845E-01  0.1598E+02
  15.620  0.8401E-01  0.1598E+02
  15.630  0.7903E-01  0.1598E+02
  15.640  0.7351E-01  0.1598E+02
  15.650  0.6746E-01  0.1599E+02
  15.660  0.6086E-01  0.1599E+02
  15.670  0.5373E-01  0.1599E+02
  15.680  0.4606E-01  0.1599E+02
  15.690  0.3860E-01  0.1599E+02
  15.700  0.3781E-01  0.1599E+02
  15.710  0.3703E-01  0.1599E+02
  15.720  0.3625E-01  0.1599E+02
  15.730  0.3549E-01  0.1599E+02
  15.740  0.3473E-01  0.1599E+02
  15.750  0.3398E-01  0.1599E+02
  15.760  0.3324E-01  0.1599E+02
  15.770  0.3250E-01  0.1599E+02
  15.780  0.3178E-01  0.1599E+02
  15.790  0.3106E-01  0.1599E+02
  15.800  0.3035E-01  0.1599E+02
  15.810  0.2965E-01  0.1599E+02
  15.820  0.2896E-01  0.1599E+02
  15.830  0.2827E-01  0.1599E+02
  15.840  0.2759E-01  0.1599E+02
  15.850  0.2693E-01  0.1599E+02
  15.860  0.2627E-01  0.1599E+02
  15.870  0.2561E-01  0.1599E+02
  15.880  0.2497E-01  0.1599E+02
  15.890  0.2434E-01  0.1599E+02
  15.900  0.2371E-01  0.1599E+02
  15.910  0.2309E-01  0.1599E+02
  15.920  0.2248E-01  0.1599E+02
  15.930  0.2188E-01  0.1599E+02
  15.940  0.2128E-01  0.1599E+02
  15.950  0.2069E-01  0.1600E+02
  15.960  0.2012E-01  0.1600E+02
  15.970  0.1955E-01  0.1600E+02
  15.980  0.1898E-01  0.1600E+02
  15.990  0.1843E-01  0.1600E+02
  16.000  0.1789E-01  0.1600E+02
